Fz,FC3,FC1,FCZ,FC2,FC4,C5,C3,C1,Cz,C2,C4,C6,CP3,CP1,CPZ,CP2,CP4,P1,Pz,P2,POZ
-14.892999999999999,-15.625,-11.963,-13.280999999999999,-15.82,-20.752,-13.672,-15.722999999999999,-11.719000000000001,-9.9609,-13.477,-18.848,-15.479000000000001,-13.037,-9.0332,-7.7148,-9.668,-12.158,-13.867,-7.959,-7.1777,-6.3965
-11.328,-11.865,-10.205,-7.959,-12.450999999999999,-14.014000000000001,-11.475,-11.328,-9.1797,-4.9316,-10.107000000000001,-11.328,-9.6191,-9.1309,-7.0313,-4.0039,-4.2969,-6.25,-11.620999999999999,-5.2734,-4.5898,-6.6895
-11.279000000000002,-12.061,-10.889000000000001,-6.25,-12.012,-11.084000000000001,-10.449000000000002,-9.9121,-11.328,-4.9805,-10.205,-8.1543,-6.7383,-8.0566,-8.6914,-3.8086,-6.25,-6.6406,-13.720999999999998,-7.666,-6.4941,-10.01
-7.8125,-13.867,-9.7656,-6.9824,-5.8594,-7.4707,-6.8359,-11.133,-10.059,-6.0547,-6.542999999999999,-5.9082,1.1719,-10.790999999999999,-7.6172,-6.1523,-3.9551,-3.3691,-13.135,-7.2266,-5.2734,-9.9609
-13.672,-19.629,-16.113,-11.719000000000001,-11.475,-9.5215,-12.012,-16.65,-16.797,-12.402000000000001,-10.790999999999999,-8.2031,-1.6602,-14.940999999999999,-13.280999999999999,-10.937999999999999,-9.5703,-7.8613,-19.141,-12.988,-11.523,-16.797
-8.9355,-14.6,-11.572000000000001,-7.7148,-7.8613,-6.6406,-9.0332,-11.084000000000001,-12.109000000000002,-8.3496,-8.5938,-5.7617,-2.0996,-9.082,-10.059,-5.6152,-5.5176,-4.9316,-13.672,-8.7402,-7.959,-12.988
-11.377,-14.697000000000001,-10.889000000000001,-11.23,-11.133,-12.695,-8.2031,-11.279000000000002,-11.133,-10.498,-10.107000000000001,-11.23,-5.3711,-8.7891,-8.1543,-8.3008,-8.7891,-9.4727,-14.209000000000001,-9.7656,-10.595999999999998,-13.232000000000001
-10.547,-5.5176,-8.2031,-6.5918,-11.767999999999999,-9.9121,-1.0254,0.39063000000000003,-6.1035,-4.1016,-10.4,-7.4707,-6.9336,2.8809,-2.0996,0.0,-6.2012,-8.252,-5.2246,-2.7344,-5.3223,-3.5645
-8.3008,-2.4902,-4.4922,-6.3477,-10.547,-10.742,3.4668,2.9297,-3.1738,-4.4922,-10.205,-9.7168,-9.5703,3.9063,-0.29297,-2.2949,-5.7617,-7.959,-4.2969,-2.6367,-5.3223,-3.4668
-9.2285,0.5371100000000001,-4.541,-3.7598,-12.793,-9.9121,2.5391,3.9551,-3.0762,-2.832,-10.4,-8.6426,-10.352,4.4922,-0.9277299999999999,-0.9277299999999999,-6.4941,-8.6914,-4.2969,-3.0762,-5.5664,-2.6855
-10.790999999999999,-1.123,-4.541,-5.6641,-12.793,-11.084000000000001,1.5137,1.5625,-4.0039,-3.7598,-10.595999999999998,-9.668,-8.2031,1.0254,-2.6367,-2.3438,-7.1289,-8.2031,-5.6641,-4.5898,-5.8105,-3.6621
-8.9355,-0.73242,-3.9063,-3.3203,-8.8867,-6.2988,0.43945,1.1719,-3.6133,-2.4414,-5.9082,-3.5156,0.3418,-0.73242,-2.0996,-0.8789100000000001,-2.7344,-1.9043,-5.0293,-1.5625,-2.3926,-1.0254
-2.1484,2.0996,1.4648,2.4902,-2.1484,-1.7578,0.78125,2.002,1.0254,3.6133,1.0254,2.002,4.7852,0.09765599999999999,2.2461,4.3457,2.4414,3.0273,-3.0273,2.1484,2.0508,2.832
0.6835899999999999,6.4453,4.8828,5.8105,0.97656,-0.8789100000000001,2.3926,5.1758,3.5645,7.5684,3.418,2.7832,1.9531,2.9297,5.2246,7.2266,6.6895,5.3223,0.5371100000000001,6.5918,5.5176,5.1758
-1.0742,3.6133,3.6133,1.3184,-1.0254,-5.5176,2.002,3.418,3.6621,4.3945,2.0996,-1.416,-1.5625,3.7598,6.0059,6.2988,4.541,2.9297,1.0254,5.6641,4.8828,4.541
3.9551,9.7656,8.252,7.3242,2.5391,-0.39063000000000003,8.4961,9.1797,7.959,8.7402,5.2734,2.4414,-0.8300799999999999,9.2773,8.6914,10.693,9.1797,6.7383,5.3223,9.4238,9.1309,7.7148
1.6602,4.7852,4.6387,1.8555,0.5371100000000001,-1.9531,6.1035,4.6387,3.5645,2.3438,1.7578,-0.63477,0.09765599999999999,5.1758,4.8828,4.1016,3.4668,2.6855,1.416,4.5898,4.4922,5.3223
3.7109,9.0332,7.7148,3.6621,2.7832,-0.3418,13.280999999999999,10.205,7.8125,4.3945,3.9551,1.5625,4.834,9.6191,9.4238,6.1035,4.4434,4.6387,4.541,6.3965,6.25,7.372999999999999
0.58594,9.0332,5.3711,4.7852,0.97656,2.9297,10.01,11.425999999999998,5.957000000000001,7.3242,3.5645,5.3711,5.5664,11.914000000000001,9.2285,9.2285,8.2031,9.0332,8.1543,11.035,10.205,12.597999999999999
6.3477,8.3008,10.498,5.957000000000001,5.2246,5.0293,11.719000000000001,11.133,10.498,7.7637,8.4961,9.4727,15.479000000000001,13.574000000000002,14.795,12.549000000000001,11.620999999999999,14.16,13.379000000000001,16.064,15.43,18.652
8.0078,13.085999999999999,11.815999999999999,9.1309,4.248,5.3223,13.477,14.697000000000001,11.475,9.3262,6.8848,8.4473,10.84,17.48,16.016,14.355,12.549000000000001,14.110999999999999,15.674000000000001,17.725,16.504,19.971
5.8105,10.107000000000001,9.8145,5.7129,0.6835899999999999,0.78125,9.082,11.475,8.5938,5.3711,3.3691,5.5176,5.3223,15.674000000000001,12.305,10.254000000000001,8.6426,9.8633,12.744000000000002,13.037,12.207,15.137
0.14648,6.8359,3.6621,1.7578,-4.9805,-2.7832,1.7578,7.0313,1.0742,0.73242,-3.2715,1.2695,-0.8300799999999999,9.0332,4.1992,3.2227,0.048827999999999996,2.2461,3.7598,3.5645,2.9785,5.0781
2.6367,5.9082,4.5898,1.2695,-2.3926,-2.5391,3.6133,5.2734,0.48828,-1.6113,-1.8066,1.0742,2.3438,6.2012,2.9297,-0.97656,0.6835899999999999,3.7598,2.8809,3.6133,4.1504,6.3477
-0.97656,-0.78125,-1.3672,-3.1738,-5.2734,-4.7852,-2.7832,-1.8066,-5.8105,-7.2266,-5.6641,-1.8555,-2.0996,-2.002,-4.7363,-7.5684,-5.5176,-2.0996,-6.0547,-5.3223,-3.7598,-3.3203
5.2734,3.1738,4.6875,2.1484,2.002,-1.416,2.8809,0.63477,-1.1719,-3.5645,-0.29297,-0.3418,0.09765599999999999,0.58594,-1.3184,-5.3223,-2.1973,0.29297,-2.6855,-2.6855,-1.9531,-1.3184
3.1738,2.1973,2.5879,0.19530999999999998,-0.39063000000000003,-3.0762,4.541,1.6602,-1.416,-3.9551,-2.002,-2.3926,-1.0254,1.0254,-0.29297,-5.2246,-2.9785,-1.5137,-2.832,-2.832,-2.4414,-2.6367
2.8809,2.5391,3.0762,0.39063000000000003,-0.97656,-4.541,6.2988,1.9531,-0.8300799999999999,-3.5156,-2.0996,-2.2949,-1.1719,1.5625,0.5371100000000001,-4.3945,-3.3203,-1.6602,-4.4922,-2.9297,-2.4902,-4.9316
-2.002,3.5645,0.58594,1.5137,-4.0527,-2.9785,2.6367,4.1016,-2.6367,-0.73242,-5.6152,-2.002,-5.7617,3.3691,-1.123,-1.8066,-1.9531,-0.9277299999999999,-1.6113,0.48828,0.14648,0.58594
-0.73242,0.48828,1.2207,-0.9277299999999999,-4.4922,-7.2754,5.4199,2.1973,-0.048827999999999996,-3.9551,-4.4434,-6.1523,-4.1016,3.4668,1.709,-2.9297,-3.8574,-2.832,0.63477,0.8789100000000001,-0.29297,2.6367
-1.4648,0.3418,0.73242,-0.78125,-3.9063,-5.8105,7.1289,3.7598,1.123,-1.5137,-1.9531,-2.9785,-0.48828,7.5684,5.0781,1.1719,0.8300799999999999,1.9531,6.7383,7.1777,5.9082,12.305
-10.84,-10.498,-8.9355,-9.3262,-12.597999999999999,-14.550999999999998,-3.4668,-6.3477,-8.0566,-8.9844,-10.352,-10.254000000000001,-9.9121,-1.416,-3.3691,-5.8105,-6.4941,-6.3965,-0.43945,0.24414,-1.3672,5.4688
-5.957000000000001,-7.0801,-5.5664,-4.4922,-8.3008,-10.449000000000002,-0.8789100000000001,-2.1973,-3.9551,-4.2969,-6.1035,-6.7383,-6.8848,2.6367,0.73242,-1.0742,-3.6133,-4.2969,3.9551,3.2227,1.4648,8.7402
-3.7598,-3.418,-2.5391,-0.58594,-4.1504,-6.9824,1.416,0.8789100000000001,0.29297,1.6602,-1.3184,-1.709,-3.1738,5.3223,4.834,3.9551,2.6855,1.9043,7.6172,8.6426,6.8359,12.158
-10.156,-6.542999999999999,-7.959,-5.6641,-10.693,-11.279000000000002,-1.9531,-3.5156,-4.834,-1.9531,-5.3711,-3.7598,-6.4941,0.39063000000000003,-0.14648,1.123,-1.709,-1.0254,-0.29297,2.4414,1.2695,4.3945
-7.5195,-4.5898,-4.3945,-3.8574,-7.372999999999999,-9.0332,-0.29297,-2.7832,-2.4902,-0.9277299999999999,-2.4414,-2.7344,-1.5625,0.39063000000000003,1.123,2.9785,1.5625,2.5879,0.5371100000000001,4.3457,4.0039,4.1992
-2.2949,1.3672,0.78125,1.7578,-2.6855,-2.5879,4.3457,2.9785,2.4902,6.2988,1.7578,4.1504,2.9785,5.5176,5.7129,9.7656,7.5684,8.6426,6.0059,10.742,10.645,9.7656
-1.7578,-3.0762,-0.78125,-0.8300799999999999,-2.9297,-4.1992,4.2969,-0.9277299999999999,1.416,2.1973,2.0996,1.3672,4.6875,3.3203,7.0313,7.5195,5.3223,6.25,4.8828,9.4727,8.7402,9.082
-6.4941,-3.8574,-5.8105,-2.0996,-7.666,-5.0293,-1.0742,-1.3672,-4.2969,-0.09765599999999999,-5.4688,-1.2207,0.0,3.125,1.1719,4.8828,2.832,3.9551,3.8086,8.2031,6.7871,9.7168
-3.8574,-7.959,-4.834,-4.1016,-7.1289,-7.0801,-0.58594,-6.2012,-4.9316,-4.1504,-4.5898,-2.832,4.5898,-0.29297,0.8789100000000001,1.416,0.6835899999999999,3.6133,3.5645,8.1055,7.3242,11.475
-2.8809,-4.4922,-5.8594,-0.29297,-5.5176,-0.8789100000000001,-1.2207,-2.6367,-5.127000000000001,-0.6835899999999999,-3.8574,2.002,5.3223,4.248,0.39063000000000003,4.834,4.5898,7.2754,7.0801,11.475,10.985999999999999,15.722999999999999
-6.3965,-9.1309,-7.4219,-6.3965,-8.6914,-8.0078,-2.0996,-6.7383,-6.8848,-6.8848,-5.8594,-4.6875,-0.048827999999999996,-2.002,-1.3672,-1.7578,-1.123,-0.048827999999999996,0.58594,4.541,3.7109,7.5195
0.9277299999999999,-2.5879,1.2207,3.0273,2.832,1.8555,5.5664,3.2227,3.7598,4.8828,7.1289,6.6406,10.985999999999999,6.3965,8.9844,8.8867,9.9121,9.7656,10.059,13.477,13.135,15.137
-0.78125,-2.832,1.5625,3.0273,3.6621,0.3418,5.8105,4.0039,4.3945,7.4707,9.3262,8.0078,9.0332,6.6406,10.107000000000001,10.254000000000001,12.890999999999998,13.037,11.719000000000001,17.578,16.846,17.969
4.6875,8.6426,8.7891,13.427999999999999,9.4727,8.7891,16.455,16.992,12.890999999999998,18.115,16.211,15.527000000000001,12.597999999999999,20.067999999999998,19.238,22.119,19.922,17.822,21.533,26.709,24.951,28.662
9.7168,13.720999999999998,13.280999999999999,20.313,13.77,13.915999999999999,18.311,21.094,16.992,22.607,18.213,18.604,15.43,24.414,21.875,25.83,23.389,21.68,24.365,29.541,28.223000000000003,33.105
14.697000000000001,18.555,17.92,23.535,16.846,16.504,20.703000000000003,23.291,18.555,25.049,19.922,20.215,15.918,23.389,21.436,25.146,23.241999999999997,20.801,22.266,27.686,25.879,29.101999999999997
14.355,16.504,16.504,20.264,14.062999999999999,11.084000000000001,16.553,17.92,15.869000000000002,19.141,13.965,11.719000000000001,10.302999999999999,17.578,17.285,17.48,14.307,11.815999999999999,14.940999999999999,19.629,17.871,21.386999999999997
18.799,22.363000000000003,21.386999999999997,25.098000000000003,17.92,16.064,17.578,21.338,18.457,22.51,15.479000000000001,13.672,10.84,18.408,18.701,19.678,16.748,12.5,17.236,21.875,19.727,25.635
27.246,27.246,26.758000000000003,30.908,23.633000000000003,22.754,17.09,22.705,21.484,26.074,20.166,17.529,12.5,18.164,19.385,21.826,16.455,12.158,13.477,20.117,16.455,20.361
24.023000000000003,22.51,23.486,28.223000000000003,22.168000000000003,22.559,10.889000000000001,19.482,18.994,23.584,16.699,13.574000000000002,8.3984,14.6,16.602,19.238,14.16,9.2773,11.620999999999999,16.504,11.620999999999999,14.697000000000001
27.588,24.706999999999997,27.686,30.273000000000003,27.246,25.293000000000003,14.99,22.607,23.682,27.051,22.168000000000003,16.942999999999998,12.890999999999998,17.871,22.168000000000003,22.949,17.578,13.280999999999999,15.479000000000001,19.727,15.380999999999998,19.434
28.809,27.686,28.369,33.887,29.736,30.664,13.085999999999999,23.975,24.706999999999997,31.934,25.342,23.34,14.355,18.555,21.729,26.025,20.898000000000003,16.65,14.453,18.848,16.211,19.043
28.271,25.195,29.395,30.322,29.736,27.441,12.695,20.752,24.023000000000003,27.831999999999997,24.511999999999997,20.41,15.332,13.184000000000001,20.117,20.459,17.822,14.99,9.7168,14.110999999999999,12.207,12.597999999999999
25.146,23.34,26.171999999999997,28.516,24.609,22.021,9.2773,17.773,19.727,24.268,19.336,16.016,9.8145,11.572000000000001,15.039000000000001,16.992,10.498,8.252,4.0039,6.9824,5.4688,4.9316
34.473,29.101999999999997,34.912,35.645,34.131,31.201,15.625,20.557,25.293000000000003,27.979,27.734,23.096,21.24,12.939,19.824,20.067999999999998,18.311,17.285,8.3008,12.842,10.84,9.4727
35.84,34.766,36.279,41.602,35.938,37.5,19.482,28.223000000000003,28.711,34.18,30.371,30.664,23.389,24.658,24.854,28.662,24.658,22.9,17.773,21.094,18.604,19.141
35.01,33.008,36.816,39.404,36.768,35.107,22.998,28.76,30.713,32.568000000000005,30.371,27.979,23.34,26.758000000000003,28.467,27.441,22.803,21.68,20.02,22.021,18.506,19.238
35.693000000000005,28.026999999999997,33.984,37.109,37.354,35.84,18.945,23.975,27.686,29.053,29.736,26.611,24.023000000000003,20.508000000000003,25.195,23.241999999999997,22.851999999999997,21.68,16.602,18.945,15.869000000000002,12.988
37.158,27.734,32.91,35.4,35.156,32.813,19.727,22.314,26.855,26.221,27.734,23.389,19.385,19.971,24.365,21.68,18.604,17.041,14.209000000000001,16.504,13.477,11.279000000000002
31.592,24.072,28.76,30.859,29.004,25.146,14.648,19.287,22.314,22.412,21.875,16.846,10.790999999999999,15.527000000000001,19.287,17.676,15.575999999999999,13.623,10.107000000000001,12.061,9.668,7.0313
32.324,27.295,28.955,29.101999999999997,27.1,25.146,16.211,20.313,20.264,20.117,18.848,15.918,10.937999999999999,13.915999999999999,15.674000000000001,14.16,12.450999999999999,11.767999999999999,6.3477,8.7402,7.1289,4.9805
33.984,32.422,30.029,33.691,28.026999999999997,30.615,16.553,24.121,20.215,22.949,21.436,22.119,16.211,16.309,15.332,17.285,14.307,14.014000000000001,6.0547,8.5449,7.7637,3.9551
30.908,27.588,28.857,28.564,28.516,29.199,16.211,20.752,19.189,19.043,20.898000000000003,20.654,17.92,13.915999999999999,14.940999999999999,13.280999999999999,14.307,14.355,6.8848,9.8633,8.7891,6.1523
28.76,24.901999999999997,25.439,25.195,25.732,27.197,18.164,18.701,17.09,14.795,19.727,19.629,18.701,14.062999999999999,14.648,11.572000000000001,12.061,13.915999999999999,8.3496,10.205,9.5215,9.375
21.094,17.236,17.822,18.066,20.02,24.658,13.085999999999999,12.354000000000001,9.5215,8.4961,13.720999999999998,16.406,18.213,10.352,7.8125,7.4707,9.2773,12.305,5.2246,8.4961,9.082,8.9844
14.6,13.33,11.719000000000001,14.745999999999999,13.867,20.02,10.156,10.693,5.127000000000001,6.0547,8.7402,12.988,14.258,9.5215,4.6875,4.7852,6.9336,10.01,4.3945,6.6406,8.252,8.6914
17.529,13.525,14.209000000000001,15.967,16.504,20.947,12.305,11.084000000000001,7.2754,8.2031,11.67,16.211,21.533,10.254000000000001,7.7148,6.9824,7.4219,12.402000000000001,5.5176,7.8125,9.375,9.375
10.449000000000002,5.8594,7.0313,6.4453,9.668,13.135,7.2266,3.0762,-0.24414,0.09765599999999999,4.4434,7.5684,13.623,0.048827999999999996,-0.9277299999999999,-1.3672,1.9043,5.2734,-2.8809,0.09765599999999999,1.3672,-0.39063000000000003
-2.8809,-7.9102,-6.8359,-5.9082,-4.3457,-1.709,-5.6152,-9.9609,-14.110999999999999,-13.33,-8.5449,-6.0059,-1.2695,-13.33,-13.818,-13.965,-12.255999999999998,-8.7402,-18.408,-16.455,-13.280999999999999,-19.189
5.2246,-1.8066,0.58594,2.3926,5.127000000000001,6.6406,2.1484,-3.2715,-5.127000000000001,-5.5176,0.8300799999999999,1.2207,8.6914,-6.6406,-5.8594,-6.8848,-3.7598,0.63477,-11.914000000000001,-9.5703,-5.7617,-12.793
-7.0313,-9.7656,-12.158,-6.3477,-7.372999999999999,-0.8300799999999999,-6.7871,-10.254000000000001,-18.018,-13.867,-11.377,-6.4453,-3.4668,-14.258,-18.799,-15.770999999999999,-14.404000000000002,-10.302999999999999,-22.168000000000003,-20.996,-18.506,-26.221
-6.6895,-11.719000000000001,-12.744000000000002,-6.25,-6.0547,-0.9277299999999999,-8.9355,-11.620999999999999,-18.018,-13.379000000000001,-10.84,-5.6641,-2.1484,-14.110999999999999,-17.334,-14.940999999999999,-14.502,-10.889000000000001,-22.217,-19.531,-17.627,-25.635
-6.2012,-13.037,-11.23,-10.84,-5.957000000000001,-5.2246,-3.125,-12.450999999999999,-16.309,-17.334,-10.352,-9.4727,-1.4648,-16.309,-14.795,-18.164,-12.645999999999999,-8.7402,-18.75,-16.357,-14.453,-20.02
-10.84,-10.302999999999999,-14.453,-10.790999999999999,-12.207,-6.9336,-6.0059,-12.061,-19.141,-16.895,-14.648,-8.7891,-5.127000000000001,-13.085999999999999,-17.48,-16.309,-14.99,-10.01,-18.115,-16.504,-15.575999999999999,-18.701
-8.3008,-6.8848,-11.084000000000001,-7.5195,-9.668,-3.9063,-2.4902,-8.1055,-15.186,-12.255999999999998,-11.328,-4.8828,-1.1719,-7.372999999999999,-13.574000000000002,-9.8145,-9.4238,-4.6875,-11.963,-10.498,-8.6914,-10.742
-7.3242,-8.8379,-11.133,-9.6191,-8.4961,-3.9063,-3.2227,-9.5703,-14.550999999999998,-12.842,-9.5215,-4.1016,0.19530999999999998,-8.7402,-11.377,-10.595999999999998,-8.252,-3.6133,-12.255999999999998,-9.4727,-7.8125,-8.4961
-8.252,-13.33,-13.135,-12.645999999999999,-8.0566,-5.3223,-4.9805,-14.307,-15.332,-15.575999999999999,-9.1309,-5.7617,1.5625,-14.844000000000001,-12.793,-13.720999999999998,-10.302999999999999,-5.7129,-17.188,-13.477,-10.595999999999998,-12.5
-11.035,-12.842,-15.039000000000001,-12.158,-8.4961,-2.7832,-5.9082,-11.815999999999999,-15.43,-13.135,-9.4727,-3.5156,0.5371100000000001,-11.377,-11.914000000000001,-11.328,-7.3242,-2.8809,-14.110999999999999,-9.668,-7.2266,-9.4727
-9.2285,-11.815999999999999,-14.307,-10.595999999999998,-7.372999999999999,0.8300799999999999,-3.0762,-8.3496,-12.842,-11.182,-6.2988,0.43945,4.4922,-7.9102,-9.3262,-7.0801,-4.7852,0.58594,-11.523,-6.8848,-3.5645,-5.957000000000001
-12.744000000000002,-13.232000000000001,-16.406,-13.427999999999999,-10.059,-3.3203,-5.4199,-9.7656,-14.648,-12.988,-9.9609,-4.1016,-3.0273,-8.7891,-10.889000000000001,-7.959,-6.2012,-2.5391,-11.767999999999999,-6.8359,-3.8086,-5.3711
-13.915999999999999,-13.965,-17.285,-15.43,-12.012,-5.0293,-5.5176,-9.1309,-14.940999999999999,-14.355,-11.914000000000001,-6.1035,-5.6641,-8.3984,-11.815999999999999,-10.107000000000001,-7.8613,-5.1758,-13.720999999999998,-9.9609,-7.8125,-9.8145
-14.404000000000002,-13.085999999999999,-14.404000000000002,-14.99,-9.9609,-6.1035,-3.2715,-7.2754,-11.572000000000001,-12.645999999999999,-8.9355,-4.8828,-3.7109,-7.5684,-9.668,-9.0332,-7.2754,-4.0527,-14.209000000000001,-9.375,-6.9824,-11.523
-4.9316,-3.5645,-5.3223,-4.7363,0.5371100000000001,4.0527,3.9551,1.4648,-4.2969,-2.7832,0.97656,4.6387,4.1992,-0.048827999999999996,-1.7578,-1.8555,2.4414,5.2246,-5.8105,-1.5625,-0.5371100000000001,-3.7598
-7.372999999999999,-7.1777,-10.790999999999999,-4.8828,-2.7344,3.418,-2.6855,-2.1484,-9.375,-5.4199,-3.8574,1.6113,-1.2207,-3.5645,-8.1055,-4.248,-5.2246,-2.7344,-11.475,-8.5449,-8.9355,-12.012
-3.4668,-6.542999999999999,-5.1758,-4.1504,2.1484,4.2969,0.97656,-1.5625,-4.1992,-5.3711,1.0742,3.418,5.3223,-3.6621,-2.832,-2.0508,-1.3672,0.58594,-7.5195,-4.9316,-5.4688,-9.2773
-3.5645,-3.2715,-5.957000000000001,-2.0996,1.709,8.0078,0.6835899999999999,1.2695,-4.6387,-1.6113,1.0742,6.6895,6.6895,-0.5371100000000001,-2.3438,0.048827999999999996,0.8300799999999999,2.5879,-4.7852,-2.5879,-3.5156,-5.7617
-3.0273,-4.2969,-4.1992,-4.834,1.6602,2.3438,3.9551,-0.29297,-1.2695,-2.8809,0.73242,1.5625,3.418,-1.2695,0.9277299999999999,-0.24414,-1.8066,-1.2207,-4.1504,-2.2461,-4.3945,-4.1016
-4.7852,-2.1973,-5.2246,-3.2715,-1.0742,2.3926,1.1719,1.6113,-3.1738,-1.0254,-0.78125,1.0742,-1.6602,-0.24414,0.5371100000000001,1.2207,0.73242,0.0,-4.1016,-0.48828,-3.1738,-3.3203
-4.248,-1.5137,-4.1992,-2.4902,-0.8300799999999999,3.1738,0.73242,0.24414,-2.3926,-0.29297,0.78125,2.8809,2.5879,-1.416,0.58594,2.6855,0.63477,0.8300799999999999,-6.2988,-2.7344,-3.7598,-7.8125
-5.5664,0.78125,-3.7598,-0.58594,-2.0508,2.9297,1.8555,3.3203,-1.416,2.6367,-0.78125,2.2461,-3.2715,1.8066,0.14648,4.4922,1.0742,0.09765599999999999,-6.3965,-3.3691,-4.1504,-8.2031
-0.8300799999999999,3.9063,-0.39063000000000003,3.9063,2.832,8.0078,3.7109,5.5176,0.97656,5.4199,4.1992,7.0801,1.4648,3.7598,2.1484,6.7871,5.2734,4.6875,-4.9805,-1.5625,-1.6113,-8.252
-3.3203,-1.1719,-3.8574,-1.6602,-0.78125,0.48828,2.2949,0.0,-3.418,1.0254,-0.19530999999999998,1.709,-1.6113,-3.0273,-2.9297,0.5371100000000001,-1.0254,-0.5371100000000001,-11.279000000000002,-8.4473,-7.4707,-16.016
-4.5898,1.3672,-2.9785,-1.8066,-0.63477,1.9531,4.1504,3.2227,-1.8066,2.1484,0.3418,3.2227,2.3926,-0.43945,-0.63477,1.6602,2.002,3.5645,-6.2988,-3.7598,-3.4668,-8.252
-4.4922,1.0742,-4.1504,-2.8809,-1.1719,3.7598,4.4434,3.5645,-2.3926,1.6602,0.58594,5.7617,6.5918,-0.63477,-1.6602,1.416,1.4648,4.1504,-7.5195,-5.1758,-4.541,-11.182
-3.7109,-0.43945,-1.5137,-2.1973,0.63477,2.6367,6.2988,2.2949,0.5371100000000001,2.2461,3.0273,4.2969,5.8105,0.48828,1.1719,2.0996,4.0527,5.6641,-3.3691,-0.73242,-0.48828,-4.248
-4.4922,-1.0254,-0.29297,-4.4922,-0.29297,-0.048827999999999996,4.834,1.709,1.9043,1.3184,2.7832,2.6367,6.1523,0.97656,3.4668,1.3672,2.9785,4.4922,-2.1484,-0.48828,0.0,-1.9043
-4.4434,2.5391,0.8300799999999999,-1.2207,1.2207,3.9551,5.6641,6.3477,3.6133,6.0547,5.127000000000001,8.3496,7.8125,5.9082,4.9805,5.9082,5.8105,7.1777,-1.0254,0.9277299999999999,1.3672,-4.3457
0.58594,3.5156,5.3711,2.0996,6.7871,6.4941,8.252,6.8848,7.0801,8.9844,9.375,9.1309,8.3008,7.4707,9.0332,7.7148,9.5215,10.547,2.6367,4.834,4.541,0.39063000000000003
4.7852,8.3496,7.1289,8.3008,8.5938,10.498,8.8867,10.937999999999999,8.7891,12.744000000000002,10.937999999999999,13.525,11.523,13.525,10.645,11.328,11.963,13.672,7.2754,8.7402,7.666,4.9316
-2.832,3.8574,0.9277299999999999,1.5137,-0.39063000000000003,0.6835899999999999,4.3945,6.1035,1.5625,4.834,2.3926,5.3711,4.1016,7.5684,2.1484,4.9316,4.2969,6.0059,-0.8789100000000001,-0.8300799999999999,-0.73242,-3.8086
4.4922,10.156,8.6914,7.2266,6.0547,6.25,10.547,11.328,7.5195,8.4473,7.6172,9.5703,9.9609,11.035,7.1777,6.1035,7.4219,8.3984,2.1973,1.1719,1.0254,-2.0996
6.542999999999999,10.205,9.7168,8.8867,8.7402,9.082,11.084000000000001,11.719000000000001,8.1055,9.082,8.5938,8.8867,10.107000000000001,10.107000000000001,7.4707,5.8594,5.0293,4.834,1.416,-0.5371100000000001,-1.9043,-4.7852
3.6621,10.889000000000001,7.5195,7.0313,5.0781,4.2969,7.372999999999999,11.279000000000002,4.541,6.8359,2.8809,3.3691,-1.8066,6.1035,3.418,2.7344,1.2207,-0.6835899999999999,-3.9063,-4.8828,-7.7148,-12.988
7.1777,14.062999999999999,11.719000000000001,8.8379,6.6406,5.2246,9.668,12.109000000000002,7.5195,8.0078,6.0059,3.9551,-0.78125,7.0801,5.0293,2.8809,0.48828,-1.6113,-4.1992,-6.6895,-10.498,-16.162
2.832,10.889000000000001,7.3242,7.4219,1.416,0.9277299999999999,5.8105,9.2773,2.4414,4.248,-1.6113,-2.0996,-9.2773,4.7363,-0.6835899999999999,-0.048827999999999996,-4.541,-6.9824,-6.2988,-9.5215,-13.33,-17.627
9.8633,13.280999999999999,12.354000000000001,11.815999999999999,7.7148,5.2246,10.156,12.207,8.252,8.4961,4.6387,2.5391,-1.2207,8.4473,5.8105,4.3457,1.8555,-0.14648,-0.09765599999999999,-2.7832,-5.5664,-9.8145
2.9785,7.4219,5.3711,7.7637,2.7344,0.39063000000000003,5.2246,7.6172,2.4414,4.9805,0.14648,0.63477,-4.6387,6.1035,1.4648,1.9043,-1.709,-3.3691,-1.9043,-3.9551,-7.2754,-7.7637
8.3008,7.8125,10.790999999999999,8.3008,6.4453,0.8789100000000001,9.7656,8.0566,7.372999999999999,4.9316,4.0039,-0.048827999999999996,-0.48828,6.9824,6.1035,1.6113,2.3438,1.1719,3.7598,2.3926,0.24414,1.5625
14.453,11.914000000000001,16.162,12.695,11.572000000000001,6.1523,11.767999999999999,10.4,11.084000000000001,9.082,8.8867,4.6387,5.6641,10.205,10.352,6.25,7.1289,6.2012,7.6172,6.9824,4.7852,7.5195
16.309,16.699,18.799,16.846,13.867,11.425999999999998,10.059,12.842,11.963,13.623,11.084000000000001,9.2773,7.1777,10.205,8.8867,9.4238,9.7656,9.668,5.5664,7.1777,6.6406,5.0781
18.701,19.287,19.727,18.701,14.892999999999999,14.307,11.475,14.453,11.963,14.648,11.133,10.937999999999999,6.8848,11.133,9.3262,10.645,9.8145,9.2285,5.4688,6.0547,4.834,3.418
18.408,17.578,19.238,16.797,14.110999999999999,11.182,11.425999999999998,11.865,10.985999999999999,11.572000000000001,10.547,8.4961,6.9336,8.1055,7.3242,6.6895,6.7871,6.4941,0.8789100000000001,1.9043,1.3672,-1.2695
8.2031,10.84,9.7168,8.0078,4.0527,4.7852,1.5137,4.4434,0.73242,3.3691,0.39063000000000003,2.0996,-0.24414,-1.8066,-3.8574,-2.0996,-0.58594,0.39063000000000003,-7.9102,-6.1523,-6.0547,-8.3984
6.4453,9.2773,7.372999999999999,6.4941,2.0508,2.1484,3.3203,2.6367,-0.29297,0.6835899999999999,-0.63477,1.8555,2.9785,-1.709,-3.2715,-3.0762,-0.8789100000000001,1.3184,-6.6406,-6.0059,-4.7852,-5.7617
7.7637,7.666,6.542999999999999,5.6641,2.7344,2.2461,5.0781,3.125,-0.24414,0.78125,-0.8300799999999999,0.6835899999999999,-2.4902,1.0742,-2.7832,-1.3184,-0.048827999999999996,1.2207,-4.3457,-4.7852,-3.9551,-4.541
0.09765599999999999,-1.3672,-3.1738,-4.1016,-5.4688,-6.1523,-2.9297,-6.5918,-10.156,-10.645,-10.4,-8.6426,-7.7148,-8.7402,-11.133,-12.744000000000002,-10.107000000000001,-8.8867,-14.795,-15.674000000000001,-14.745999999999999,-15.869000000000002
1.0742,-1.3672,-3.6621,-3.0273,-5.7129,-4.541,-5.2734,-6.6895,-11.035,-9.7656,-11.475,-7.959,-7.1777,-9.375,-12.695,-13.135,-11.767999999999999,-9.3262,-16.26,-16.65,-14.795,-19.189
6.25,0.0,2.832,-0.8789100000000001,0.14648,-3.418,-1.0742,-4.1992,-4.834,-6.7383,-5.5664,-5.2734,-2.3926,-6.1523,-5.6641,-9.4238,-5.0293,-2.6855,-9.9121,-9.668,-7.4219,-12.402000000000001
6.2988,-2.002,1.9043,-0.8300799999999999,1.3184,-0.24414,-1.5625,-4.0039,-3.2715,-6.2012,-2.5391,-2.6855,0.58594,-3.5645,-2.9785,-6.3477,-3.5156,-1.709,-8.0078,-6.7383,-4.1504,-8.0078
2.0508,-3.6621,-2.1484,-3.9551,-3.2715,-2.0996,-2.7832,-4.1504,-6.7383,-8.3008,-6.7871,-5.5664,-3.2715,-3.0762,-6.0547,-7.1289,-5.4199,-1.7578,-8.252,-6.9824,-4.4922,-6.1523
-1.6113,-6.2012,-5.2734,-10.547,-7.8613,-7.4707,-2.1484,-6.0547,-8.8379,-13.915999999999999,-9.3262,-8.0078,-3.125,-4.834,-6.6895,-10.059,-7.5684,-3.9551,-8.9844,-8.5938,-5.957000000000001,-5.4199
-6.0059,-8.0566,-7.9102,-13.77,-10.4,-10.205,-1.2207,-5.8105,-9.3262,-14.6,-10.693,-8.1543,-3.2715,-4.248,-5.8105,-9.668,-8.252,-5.6641,-8.3008,-7.4219,-4.9316,-2.7832
-5.0293,-7.0313,-7.959,-13.818,-9.4727,-9.082,1.5137,-4.2969,-8.6426,-14.453,-11.475,-11.23,-5.7617,-3.4668,-6.1035,-10.547,-9.3262,-7.959,-6.2988,-6.3477,-5.8105,-1.8066
-4.6387,-8.3984,-8.6426,-13.965,-10.547,-10.4,0.048827999999999996,-4.9805,-10.254000000000001,-15.674000000000001,-13.427999999999999,-14.014000000000001,-7.1289,-4.6387,-7.1777,-11.963,-14.355,-14.697000000000001,-9.8633,-10.547,-11.67,-9.0332
1.123,-0.39063000000000003,-1.5625,-2.3926,-2.7832,-1.0742,5.2734,3.6621,-2.1484,-3.5645,-5.8105,-6.7383,-2.6367,4.6875,-0.3418,-1.6113,-4.3457,-6.7871,-0.24414,-0.78125,-2.9785,0.8300799999999999
2.5391,1.0254,1.123,-0.39063000000000003,-0.5371100000000001,0.29297,6.1035,4.1504,-0.5371100000000001,-0.78125,-4.3945,-6.4941,-3.9551,5.6152,1.123,-0.09765599999999999,-2.5879,-5.6641,1.1719,1.2695,-1.709,3.4668
4.3945,-1.3672,1.8066,-1.2207,0.78125,-1.5625,4.1992,0.9277299999999999,-0.09765599999999999,-2.0996,-2.4902,-7.4707,-4.1504,1.6602,1.5137,-1.0742,-4.0039,-6.6406,-0.63477,-0.43945,-2.2949,2.3926
4.3945,1.3672,3.4668,0.29297,2.8809,-0.24414,5.8105,2.5391,1.6602,0.14648,0.8300799999999999,-3.7109,-0.8300799999999999,1.4648,3.7598,1.6602,1.6113,0.39063000000000003,2.6855,4.3457,3.2227,7.5684
-2.7832,-4.7852,-3.9551,-7.9102,-4.7852,-6.3965,-1.416,-5.7129,-5.9082,-9.1797,-5.4199,-6.4941,-2.6855,-7.372999999999999,-4.7852,-5.5176,-4.834,-2.7832,-6.2988,-3.7598,-2.6367,-0.19530999999999998
-5.7617,-4.4434,-6.9336,-7.9102,-8.5449,-6.7871,-4.3945,-6.7383,-10.693,-10.547,-9.7168,-6.4941,-5.957000000000001,-9.5703,-10.790999999999999,-6.6406,-6.7383,-3.6621,-9.4238,-6.6406,-4.9805,-5.5176
-4.541,-3.3691,-6.8359,-6.8848,-7.2266,-3.125,-6.2988,-6.1035,-8.9844,-8.4961,-6.9336,-2.1484,0.43945,-10.01,-9.5215,-6.1035,-4.0527,0.63477,-9.9609,-6.3965,-3.9551,-7.0801
-5.2734,-5.7129,-7.666,-5.9082,-6.8848,-2.5391,-7.9102,-6.6895,-10.4,-7.5195,-7.6172,0.39063000000000003,2.1484,-10.790999999999999,-11.133,-6.2012,-5.3223,-1.5137,-12.939,-9.082,-6.8359,-12.109000000000002
-2.0508,-3.9551,-5.5176,-4.1016,-5.2734,-0.3418,-7.4707,-6.9336,-9.8145,-6.3477,-6.3965,-0.048827999999999996,0.97656,-10.742,-11.133,-5.8105,-3.7598,0.29297,-11.963,-7.7637,-5.2246,-11.67
2.7832,-0.78125,-2.7344,-0.43945,-2.4902,2.832,-4.1016,-3.418,-5.7129,-4.0527,-4.5898,1.5625,-0.19530999999999998,-6.8848,-7.666,-3.0762,-3.2715,0.5371100000000001,-8.5449,-6.1523,-4.5898,-9.6191
4.1016,-0.48828,1.0254,0.29297,-1.1719,-0.97656,-1.9043,-3.9063,-4.9805,-4.2969,-4.4434,-2.0996,-2.9297,-6.0059,-7.0801,-4.1992,-2.5879,-0.43945,-7.8613,-6.2988,-4.7852,-8.1543
5.957000000000001,2.4902,2.1973,3.5156,0.19530999999999998,1.709,-0.29297,-1.6113,-3.8086,-2.4902,-3.418,-0.48828,-1.5625,-4.8828,-5.7617,-3.9063,-1.2207,0.73242,-5.957000000000001,-5.4688,-4.3457,-6.1035
0.3418,-2.6855,-3.418,-0.63477,-2.9297,-0.48828,-4.4922,-5.8594,-8.0078,-6.1035,-5.7617,-2.1973,-3.2715,-7.0801,-8.7891,-6.2012,-6.0059,-4.4434,-10.01,-9.7656,-9.0332,-10.84
6.0547,2.0508,3.3691,3.4668,3.5156,1.709,2.2461,-0.8789100000000001,-0.48828,-0.048827999999999996,1.0742,0.29297,-1.0742,-2.2461,-1.709,-2.2461,1.5625,0.8789100000000001,-3.418,-1.9531,-1.3672,-2.5879
2.8809,-3.0762,-0.19530999999999998,-0.6835899999999999,-0.29297,-2.3438,-0.73242,-5.4199,-3.3203,-4.1992,-1.6113,-4.1016,-5.1758,-5.2246,-3.5645,-4.9316,-3.0762,-3.418,-5.0293,-4.1504,-4.248,-4.541
-0.63477,-3.8574,-2.1484,-0.14648,-2.2461,-1.1719,-0.8789100000000001,-3.8574,-3.7109,-3.0273,-2.002,-2.5391,-5.4199,-1.5137,-1.8555,-1.5625,-1.4648,-1.9531,-1.7578,-0.9277299999999999,-1.9043,-0.78125
-3.5156,-7.8125,-5.5664,-6.8848,-6.7383,-6.9824,-0.19530999999999998,-6.5918,-6.6895,-8.8379,-7.1777,-9.0332,-9.1797,-2.0996,-3.2715,-6.0059,-6.3477,-7.4219,-2.3926,-3.418,-4.9316,-1.709
-9.5703,-8.9355,-11.377,-9.668,-14.404000000000002,-11.475,-3.1738,-5.5176,-11.865,-12.255999999999998,-16.162,-14.258,-15.625,-1.709,-8.5449,-8.4473,-13.915999999999999,-15.332,-5.6641,-7.5195,-10.937999999999999,-6.2012
-11.572000000000001,-14.062999999999999,-13.77,-14.404000000000002,-16.211,-17.188,-5.2734,-11.182,-15.625,-19.092,-19.775,-21.973000000000003,-16.309,-7.372999999999999,-11.67,-16.992,-19.189,-21.826,-9.6191,-12.305,-17.383,-11.23
-12.549000000000001,-13.085999999999999,-17.432000000000002,-14.062999999999999,-19.238,-16.26,-6.6406,-11.377,-19.678,-20.41,-23.779,-22.754,-22.021,-7.0313,-17.09,-17.627,-23.73,-27.197,-14.307,-17.139,-21.24,-14.16
-13.818,-15.575999999999999,-18.848,-15.234000000000002,-18.457,-14.16,-10.01,-13.525,-21.533,-19.775,-21.875,-18.896,-15.967,-9.5703,-18.506,-16.846,-19.629,-20.85,-14.062999999999999,-14.648,-16.748,-10.595999999999998
-12.012,-18.896,-17.139,-16.846,-16.064,-15.039000000000001,-10.059,-17.139,-20.117,-21.484,-17.871,-17.139,-10.645,-12.645999999999999,-16.846,-18.848,-17.578,-16.797,-14.844000000000001,-14.6,-15.234000000000002,-9.6191
-7.2266,-11.23,-13.085999999999999,-9.082,-11.279000000000002,-5.5664,-9.7656,-11.279000000000002,-16.504,-13.915999999999999,-13.525,-7.9102,-7.3242,-9.082,-15.575999999999999,-12.939,-12.744000000000002,-10.889000000000001,-13.427999999999999,-12.109000000000002,-11.182,-9.1309
-5.9082,-14.209000000000001,-11.377,-10.985999999999999,-9.2285,-7.959,-10.254000000000001,-14.795,-16.162,-16.113,-12.988,-9.7168,-7.6172,-14.697000000000001,-16.504,-17.188,-13.33,-10.254000000000001,-16.895,-15.674000000000001,-13.477,-12.988
-7.0313,-11.865,-12.402000000000001,-9.2773,-11.133,-6.2988,-10.595999999999998,-13.33,-16.992,-14.940999999999999,-13.574000000000002,-7.8613,-6.542999999999999,-13.574000000000002,-18.164,-16.26,-14.795,-11.182,-19.092,-17.627,-15.283,-15.479000000000001
-12.890999999999998,-15.479000000000001,-16.942999999999998,-13.77,-17.236,-12.939,-17.578,-18.75,-22.705,-21.143,-21.68,-16.455,-16.65,-21.094,-26.074,-23.096,-22.705,-19.922,-27.344,-26.27,-24.316,-25.488000000000003
-8.1055,-12.793,-12.402000000000001,-13.915999999999999,-13.623,-11.815999999999999,-10.4,-15.918,-18.848,-20.85,-18.066,-15.186,-12.890999999999998,-18.604,-21.924,-23.193,-20.459,-18.408,-24.706999999999997,-23.975,-22.266,-23.975
-9.7656,-11.279000000000002,-11.914000000000001,-14.892999999999999,-13.33,-13.379000000000001,-7.0801,-13.085999999999999,-16.748,-20.166,-17.041,-15.137,-12.207,-17.383,-18.994,-21.776999999999997,-19.336,-17.09,-24.706999999999997,-22.705,-21.24,-24.121
-13.037,-10.693,-15.186,-15.088,-16.992,-13.037,-10.498,-14.062999999999999,-20.898000000000003,-19.58,-19.775,-14.110999999999999,-15.186,-19.385,-22.705,-21.386999999999997,-18.604,-16.064,-25.439,-22.9,-21.973000000000003,-23.877
-10.84,-11.035,-13.915999999999999,-16.064,-15.479000000000001,-11.425999999999998,-8.0566,-13.965,-19.189,-20.752,-16.504,-11.23,-6.9336,-17.09,-19.775,-19.727,-16.455,-11.865,-22.021,-18.652,-17.041,-18.848
-12.012,-11.23,-13.574000000000002,-16.064,-14.6,-11.475,-6.7871,-12.109000000000002,-17.188,-19.727,-15.283,-9.8633,-6.542999999999999,-13.915999999999999,-16.992,-16.455,-12.744000000000002,-9.4238,-17.871,-15.380999999999998,-13.720999999999998,-15.137
-12.939,-11.767999999999999,-15.575999999999999,-14.014000000000001,-15.527000000000001,-10.107000000000001,-11.279000000000002,-13.135,-18.799,-16.26,-15.674000000000001,-8.7402,-9.1309,-14.014000000000001,-17.969,-14.745999999999999,-13.720999999999998,-10.985999999999999,-18.213,-16.309,-14.940999999999999,-15.088
-10.84,-14.795,-14.795,-16.162,-14.258,-14.6,-11.963,-18.311,-19.287,-19.727,-15.625,-13.672,-8.8379,-17.822,-18.555,-19.287,-17.041,-15.137,-21.875,-20.459,-20.117,-21.094
-11.719000000000001,-13.232000000000001,-15.43,-12.988,-14.014000000000001,-11.328,-15.527000000000001,-15.674000000000001,-19.482,-15.967,-15.527000000000001,-10.84,-9.082,-15.625,-17.627,-15.43,-14.355,-13.379000000000001,-18.848,-17.285,-17.92,-17.676
-6.8359,-9.0332,-10.449000000000002,-5.8594,-9.6191,-9.1797,-12.012,-11.475,-12.695,-10.107000000000001,-10.889000000000001,-9.2773,-6.3965,-10.156,-11.377,-9.4727,-10.547,-10.693,-12.939,-11.67,-13.184000000000001,-10.84
-3.3691,-9.5703,-9.0332,-5.2246,-7.666,-8.0566,-11.572000000000001,-13.77,-12.061,-10.498,-10.547,-10.985999999999999,-5.0781,-10.693,-10.4,-9.5703,-10.352,-10.84,-11.23,-9.6191,-11.572000000000001,-8.9355
-3.9063,-10.84,-8.6914,-7.1289,-6.8848,-7.8613,-9.9121,-13.574000000000002,-10.059,-9.7656,-8.5938,-10.985999999999999,-2.4414,-9.8633,-6.9824,-8.0078,-9.9121,-12.109000000000002,-7.9102,-7.0313,-9.2773,-5.1758
-6.0547,-10.84,-9.3262,-6.2988,-6.1523,-6.4453,-7.959,-10.254000000000001,-7.372999999999999,-6.542999999999999,-7.8613,-10.742,-4.6875,-5.3711,-3.1738,-4.541,-8.9844,-12.305,-3.5156,-4.1504,-7.7637,-2.6855
-7.9102,-13.867,-11.767999999999999,-9.8633,-6.0059,-4.7363,-8.4473,-12.255999999999998,-11.279000000000002,-9.082,-9.0332,-10.790999999999999,-5.4688,-6.6895,-5.9082,-7.7148,-9.9609,-13.379000000000001,-6.3965,-5.8594,-9.1309,-4.7363
-13.477,-16.65,-16.553,-13.135,-11.719000000000001,-8.7402,-10.352,-14.6,-15.43,-12.793,-11.620999999999999,-11.475,-9.668,-7.7637,-10.156,-10.645,-13.477,-15.137,-8.5449,-9.668,-12.305,-7.8613
-14.062999999999999,-17.09,-17.139,-13.867,-12.597999999999999,-10.254000000000001,-11.67,-15.625,-17.627,-14.404000000000002,-12.939,-11.865,-11.865,-9.7656,-13.720999999999998,-12.5,-13.818,-15.479000000000001,-12.158,-12.793,-13.280999999999999,-9.8633
-15.283,-17.236,-17.969,-14.6,-13.965,-9.6191,-15.186,-16.65,-18.994,-14.550999999999998,-13.915999999999999,-9.9121,-12.988,-11.279000000000002,-15.674000000000001,-13.672,-14.307,-14.892999999999999,-14.550999999999998,-14.404000000000002,-14.404000000000002,-11.767999999999999
-13.379000000000001,-13.33,-14.6,-10.449000000000002,-11.182,-7.7637,-12.939,-11.963,-14.16,-10.205,-9.7168,-5.5176,-10.985999999999999,-7.8125,-12.061,-9.6191,-9.9121,-10.84,-12.402000000000001,-11.719000000000001,-11.523,-13.280999999999999
-13.33,-11.963,-12.109000000000002,-9.2285,-8.8379,-6.7871,-12.450999999999999,-10.01,-11.572000000000001,-6.7871,-7.4219,-3.9551,-9.4238,-6.4941,-9.2773,-7.4219,-6.0547,-6.8848,-10.742,-8.3984,-8.3496,-10.107000000000001
-7.6172,-8.7402,-7.0313,-6.25,-5.1758,-5.0781,-9.0332,-9.0332,-6.6895,-5.5176,-3.7598,-3.0762,-5.3223,-5.7129,-5.127000000000001,-4.9805,-5.2246,-5.9082,-8.7402,-5.6641,-6.2012,-7.3242
-6.0547,-6.0547,-5.2734,-3.7598,-3.5645,-2.8809,-9.0332,-7.5195,-5.7129,-3.5645,-4.0039,-3.2715,-9.1309,-5.4688,-5.3223,-3.1738,-3.0762,-5.5176,-6.1523,-3.0273,-4.8828,-4.4434
0.43945,2.002,1.9531,3.7598,1.7578,3.9063,-4.0039,-0.24414,0.58594,3.4668,2.0508,2.002,-2.7344,0.6835899999999999,0.78125,3.4668,1.9531,-1.0254,-0.8300799999999999,1.5625,-0.6835899999999999,-0.14648
6.0059,4.834,7.959,7.959,6.4941,6.3477,0.19530999999999998,2.2949,6.0059,6.0059,5.7129,4.1504,2.9785,1.6113,5.4688,6.1523,4.6387,0.6835899999999999,1.9043,4.5898,2.2461,3.125
6.0059,9.1797,8.9844,10.059,7.3242,7.8125,2.4414,5.7129,6.6895,8.3496,6.7383,5.957000000000001,2.002,3.2227,5.4688,7.2266,6.9824,3.5156,3.6621,7.372999999999999,5.1758,5.9082
1.2695,3.9551,5.5664,4.2969,2.2949,1.0742,1.4648,1.123,4.7363,4.0039,3.8086,1.0254,-2.5391,-0.19530999999999998,4.0527,4.5898,3.1738,0.73242,1.0254,4.3945,3.125,4.6875
0.48828,4.7363,4.4434,4.541,0.97656,0.6835899999999999,1.3672,2.7344,3.4668,4.1992,2.7832,1.4648,-1.8555,1.0742,3.5156,5.7617,4.8828,1.9531,3.6621,5.6641,4.3945,7.2266
-8.8867,-3.7598,-5.3711,-5.3223,-7.3242,-8.1055,-3.0273,-5.2734,-5.3223,-5.0293,-5.3711,-6.2012,-9.1309,-4.834,-4.1504,-2.9785,-3.3203,-5.127000000000001,-2.0996,-1.2695,-2.2461,1.5137
-10.547,-2.0508,-5.6152,-2.7832,-7.7637,-6.6895,-4.1992,-3.2715,-6.6406,-2.5879,-6.1523,-4.5898,-12.354000000000001,-2.6855,-4.7852,-2.3438,-4.9805,-8.0078,-3.9551,-3.418,-4.9805,-1.4648
-7.9102,-1.1719,-4.5898,-2.002,-6.0547,-6.1523,-4.2969,-4.6875,-6.542999999999999,-3.5156,-6.7383,-7.3242,-12.012,-4.9316,-6.2012,-5.6641,-7.3242,-10.352,-5.6152,-5.8594,-7.9102,-5.127000000000001
-10.84,-7.8125,-9.8633,-8.0078,-10.498,-10.742,-7.666,-10.547,-11.620999999999999,-10.254000000000001,-12.744000000000002,-14.648,-15.234000000000002,-9.082,-10.449000000000002,-12.158,-14.892999999999999,-17.383,-10.205,-12.5,-15.088,-11.133
-12.549000000000001,-6.4941,-9.7168,-8.3984,-13.184000000000001,-13.477,-7.5684,-10.302999999999999,-12.305,-12.305,-15.625,-17.725,-17.92,-8.1055,-12.744000000000002,-12.988,-16.699,-20.85,-12.061,-14.745999999999999,-17.725,-13.232000000000001
-15.039000000000001,-10.790999999999999,-12.645999999999999,-10.790999999999999,-16.895,-18.066,-12.255999999999998,-14.550999999999998,-15.283,-14.697000000000001,-20.166,-22.363000000000003,-25.049,-11.620999999999999,-15.770999999999999,-17.676,-21.68,-25.049,-15.039000000000001,-18.262,-20.41,-16.064
-17.188,-15.674000000000001,-15.234000000000002,-16.504,-19.189,-24.023000000000003,-11.865,-18.457,-16.846,-19.434,-21.24,-26.318,-22.559,-16.064,-16.016,-20.067999999999998,-23.145,-26.318,-15.625,-18.555,-20.02,-14.99
-15.137,-10.302999999999999,-11.67,-11.719000000000001,-15.967,-18.75,-7.9102,-10.352,-11.23,-12.061,-16.748,-19.678,-18.213,-7.0801,-9.2285,-10.107000000000001,-12.695,-16.357,-5.6152,-6.1523,-7.6172,-3.5156
-15.186,-9.4727,-9.2773,-11.23,-15.137,-18.018,-5.2734,-8.4473,-7.4219,-9.1797,-12.744000000000002,-18.213,-17.236,-3.0762,-4.0039,-5.7129,-9.4727,-13.965,-2.1973,-2.8809,-5.8594,-2.7344
-14.745999999999999,-5.0781,-7.9102,-7.959,-12.695,-13.184000000000001,-2.9785,-4.4922,-5.127000000000001,-6.1035,-10.645,-13.184000000000001,-14.99,-0.3418,-1.7578,-1.5137,-5.0781,-8.4961,0.43945,0.09765599999999999,-2.002,-1.8555
-9.2285,0.09765599999999999,-3.3203,-2.002,-4.8828,-1.3672,1.8555,3.125,0.97656,2.4414,-1.5625,0.5371100000000001,-0.73242,8.8867,4.834,6.4453,4.3457,1.6113,6.5918,7.2266,6.1035,4.4922
-11.572000000000001,-1.7578,-4.541,-3.2227,-6.4453,-5.0293,1.8555,2.6367,1.123,0.6835899999999999,-1.6602,0.5371100000000001,-4.2969,7.0313,4.834,5.957000000000001,3.1738,0.97656,6.25,7.5195,6.2988,5.4199
-17.188,-5.0781,-9.1309,-8.3008,-10.889000000000001,-9.4238,-1.3672,-0.8789100000000001,-4.6387,-4.3457,-7.4219,-3.2715,-8.3496,2.3926,-0.97656,-0.39063000000000003,-0.9277299999999999,-3.0273,1.5137,3.1738,2.002,3.5156
-18.652,-7.3242,-11.279000000000002,-9.6191,-14.110999999999999,-11.23,-3.0762,-3.2715,-7.0313,-7.1289,-9.6191,-4.6875,-10.302999999999999,1.123,-3.6621,-1.8066,-3.7598,-5.2246,-0.6835899999999999,1.2695,-0.8300799999999999,2.6367
-16.455,-10.302999999999999,-10.352,-11.719000000000001,-12.207,-14.16,-3.5645,-7.5684,-6.8359,-10.4,-8.7891,-9.7656,-13.135,-2.8809,-4.4434,-4.541,-5.2734,-6.8359,-1.709,1.123,-0.39063000000000003,5.2734
-14.453,-8.9355,-9.082,-11.182,-9.8145,-10.790999999999999,-1.2207,-6.5918,-6.2988,-9.2285,-6.8848,-6.1035,-6.4941,-2.6367,-3.3203,-3.6621,-3.0273,-4.1504,0.24414,2.2461,1.2207,7.8613
-14.453,-2.9297,-8.9355,-6.8848,-10.156,-5.5176,4.0527,0.19530999999999998,-5.4199,-4.7852,-6.6406,-1.2695,-3.8086,4.3945,-1.9531,1.2207,-0.97656,-1.3672,4.0039,4.248,3.125,10.547
-12.158,-8.6914,-9.7168,-11.914000000000001,-8.0566,-7.2266,2.1973,-6.2988,-6.6895,-10.645,-7.2754,-5.2246,-2.4902,-2.4414,-3.1738,-5.2734,-2.832,-2.6367,1.416,2.6367,0.43945,8.8867
-14.014000000000001,-9.1309,-12.109000000000002,-11.182,-11.572000000000001,-8.2031,-0.3418,-8.1543,-11.133,-11.914000000000001,-10.254000000000001,-5.0781,-5.957000000000001,-3.8574,-8.7402,-7.6172,-6.8359,-5.0293,-3.9063,-3.1738,-4.0527,2.6367
-18.213,-9.2285,-14.745999999999999,-12.207,-16.406,-13.085999999999999,-1.123,-7.5684,-13.280999999999999,-13.965,-14.502,-10.059,-12.450999999999999,-4.1504,-12.012,-10.4,-10.059,-9.1309,-6.7871,-7.2754,-8.0566,-2.5391
-14.062999999999999,-8.0078,-10.790999999999999,-12.109000000000002,-14.307,-13.867,-0.43945,-8.4961,-11.328,-14.453,-14.110999999999999,-11.767999999999999,-11.620999999999999,-6.5918,-11.719000000000001,-12.988,-12.012,-12.450999999999999,-10.498,-10.889000000000001,-12.354000000000001,-9.8633
-13.427999999999999,-3.3691,-9.7168,-8.4473,-13.623,-12.158,-0.3418,-5.2246,-10.889000000000001,-10.4,-13.672,-10.156,-13.965,-5.0293,-12.207,-10.205,-12.5,-14.453,-12.402000000000001,-11.815999999999999,-14.110999999999999,-14.209000000000001
-14.355,-5.0293,-9.668,-9.6191,-13.574000000000002,-13.33,-1.8066,-6.3477,-11.133,-11.279000000000002,-13.672,-11.815999999999999,-15.575999999999999,-7.2266,-12.207,-10.595999999999998,-12.988,-16.357,-13.232000000000001,-13.574000000000002,-15.43,-18.359
-7.372999999999999,2.1973,-4.3457,-3.125,-8.1543,-5.4199,3.5156,-0.63477,-5.4199,-4.7363,-7.5195,-5.0293,-8.5938,-0.048827999999999996,-5.8594,-3.418,-7.4219,-9.668,-5.6152,-6.5918,-9.2285,-10.302999999999999
-8.3984,-2.4902,-6.4941,-6.6406,-9.7656,-8.3984,1.9043,-4.2969,-7.7637,-9.1309,-9.1797,-8.3008,-8.1055,-3.5156,-6.6895,-6.8359,-7.9102,-9.7656,-5.4199,-6.8359,-9.4238,-8.4473
-9.2773,-6.2012,-9.6191,-9.4238,-10.352,-7.4219,-3.0273,-8.4473,-11.425999999999998,-10.645,-10.889000000000001,-8.2031,-8.3984,-6.0547,-9.1309,-8.1543,-9.9609,-10.645,-7.666,-8.1543,-10.790999999999999,-8.6426
-12.450999999999999,-13.135,-13.33,-15.283,-14.795,-17.725,-8.4961,-15.869000000000002,-15.039000000000001,-16.26,-14.844000000000001,-16.309,-13.085999999999999,-11.523,-11.620999999999999,-13.477,-15.186,-15.869000000000002,-12.109000000000002,-12.645999999999999,-14.355,-11.865
-14.355,-12.158,-15.234000000000002,-14.648,-17.383,-17.236,-12.549000000000001,-15.625,-16.748,-16.162,-18.896,-17.871,-15.575999999999999,-11.914000000000001,-14.745999999999999,-13.379000000000001,-15.380999999999998,-16.699,-11.425999999999998,-12.354000000000001,-13.77,-10.645
-17.334,-16.357,-17.383,-19.287,-20.654,-22.559,-18.213,-20.557,-18.262,-19.824,-20.557,-22.705,-19.092,-15.380999999999998,-15.039000000000001,-16.064,-18.896,-21.289,-13.085999999999999,-13.672,-15.527000000000001,-13.135
-6.5918,-5.5664,-4.4922,-8.0566,-9.1309,-12.305,-3.9551,-7.5195,-4.9805,-7.7148,-8.5449,-12.5,-7.2266,-1.8066,-1.8555,-2.8809,-6.1523,-9.9121,-0.97656,-0.6835899999999999,-3.9063,-0.6835899999999999
-3.8086,-4.0039,-2.4414,-5.7129,-4.8828,-6.8848,-4.0039,-4.3457,-1.9531,-4.541,-4.9805,-7.9102,-4.0039,0.9277299999999999,1.2207,-0.48828,-3.3691,-7.4219,1.8555,1.0742,-2.2949,0.8300799999999999
1.0254,3.7109,5.0781,2.5879,2.9297,1.4648,4.7852,5.6152,6.6406,5.0781,4.541,4.1016,5.1758,10.985999999999999,9.8633,9.1309,5.3711,2.2461,11.035,10.01,6.542999999999999,11.620999999999999
-1.9531,5.4199,2.2461,3.6133,1.5137,3.2227,3.3203,7.0801,3.5156,5.5176,3.3691,6.4453,2.5879,10.595999999999998,6.9336,7.7637,5.5176,2.6367,8.6426,7.9102,5.2734,9.9609
3.3691,7.4219,7.0801,6.1035,6.9824,6.2988,9.1309,8.4961,8.252,6.7871,9.1309,9.4727,8.6426,10.4,9.7168,7.5684,7.2754,5.6641,8.5449,7.5195,5.7129,9.1309
2.5879,8.9355,6.0547,8.3008,5.7129,6.3965,7.9102,8.7402,6.0059,6.6406,6.542999999999999,9.3262,6.3477,9.1797,5.7129,6.4453,6.1523,5.1758,5.4688,4.9316,3.5156,6.7871
4.248,10.156,8.2031,9.9609,6.4453,5.6641,7.5684,9.0332,7.372999999999999,8.0078,6.5918,7.5684,1.8555,7.666,5.5176,5.2246,4.7852,4.0039,3.6133,2.7832,1.8555,4.3457
7.5684,12.012,10.742,14.355,10.498,10.693,6.3965,9.8145,8.9355,12.450999999999999,9.9609,12.207,5.6152,6.4453,6.2988,7.8125,7.5684,7.959,3.1738,3.7598,4.8828,4.248
8.3008,12.305,10.742,16.699,13.280999999999999,14.453,3.6621,9.5215,8.6914,15.283,12.645999999999999,15.283,7.372999999999999,5.0293,6.3477,9.6191,12.109000000000002,12.305,4.541,6.542999999999999,8.0566,6.542999999999999
10.01,11.133,10.352,17.725,13.085999999999999,13.33,2.2461,8.9355,10.156,16.406,13.280999999999999,14.6,4.1504,4.9316,6.9824,10.84,9.668,10.352,3.6621,5.957000000000001,7.7637,6.2012
8.6426,9.9121,9.4238,18.018,12.305,12.255999999999998,-0.78125,6.25,7.2754,15.283,12.207,13.77,4.9316,2.3926,3.9551,9.668,10.498,12.012,3.0273,5.7129,9.1797,6.9824
9.5703,12.158,12.450999999999999,17.285,11.425999999999998,9.6191,1.6602,7.0801,9.1797,15.039000000000001,11.963,11.425999999999998,3.125,2.7832,4.248,7.5195,9.3262,9.7656,2.1973,4.9316,7.959,6.8359
11.279000000000002,12.988,15.186,16.211,11.620999999999999,5.3223,4.4434,6.4941,10.84,13.672,10.547,7.1289,1.6602,0.48828,5.2246,4.8828,5.5176,5.127000000000001,0.58594,2.1973,4.3457,2.5391
14.355,15.575999999999999,18.701,20.166,15.722999999999999,9.6191,5.5176,6.8848,11.865,16.016,14.16,9.1797,4.248,0.24414,5.4199,6.1523,9.4727,8.1055,2.8809,6.0059,8.3496,7.5684
17.773,16.553,21.533,23.779,18.262,12.158,3.4668,6.1523,13.477,19.141,16.699,11.084000000000001,4.2969,-0.09765599999999999,6.1035,9.3262,9.8145,7.959,2.832,6.4941,7.666,6.9824
19.092,15.039000000000001,22.754,24.901999999999997,21.631,14.062999999999999,2.6367,4.1504,15.088,20.703000000000003,18.945,12.061,6.6895,-0.48828,8.1055,10.498,12.207,8.2031,4.5898,7.2754,7.1777,5.1758
18.848,13.037,21.191,26.709,22.851999999999997,17.041,0.048827999999999996,3.2715,14.502,22.363000000000003,21.045,14.6,6.9824,0.58594,9.7168,13.427999999999999,13.623,10.449000000000002,6.8359,8.8867,8.1055,7.2266
21.24,13.818,23.877,28.809,26.563000000000002,19.482,3.1738,7.4707,19.385,27.93,24.268,17.627,11.963,7.7637,17.627,19.385,17.725,13.184000000000001,13.672,15.43,12.890999999999998,12.890999999999998
23.926,16.26,27.344,30.469,29.736,20.801,10.302999999999999,14.258,26.025,32.031,27.979,18.359,15.380999999999998,16.797,27.246,25.586,23.828000000000003,17.529,23.975,24.706999999999997,20.654,22.559
18.164,12.158,21.631,26.123,23.438000000000002,17.041,8.252,12.305,22.949,28.026999999999997,23.633000000000003,14.697000000000001,12.158,17.92,25.195,23.486,20.703000000000003,13.965,22.363000000000003,22.412,19.141,19.58
11.475,5.9082,15.869000000000002,16.846,15.234000000000002,9.2285,6.1035,6.9336,16.211,19.092,14.550999999999998,4.4434,4.541,13.232000000000001,18.799,16.309,14.209000000000001,7.0313,18.555,18.506,16.357,18.457
10.302999999999999,6.4453,14.745999999999999,15.186,14.062999999999999,9.0332,8.3008,9.8633,16.942999999999998,17.139,13.280999999999999,3.9551,5.2734,16.895,20.313,17.383,14.550999999999998,7.2266,22.021,20.313,18.115,22.021
1.1719,-0.048827999999999996,5.3223,6.4941,5.5664,3.5156,5.6641,5.3223,8.2031,8.4473,4.1016,-1.123,-0.48828,11.523,11.914000000000001,7.8613,4.2969,-0.9277299999999999,11.523,9.5703,7.0801,7.4707
2.5879,1.0742,5.5176,4.541,6.0547,4.0527,9.668,5.5176,6.542999999999999,5.1758,3.6621,0.8300799999999999,1.5625,10.254000000000001,9.8633,4.5898,4.7363,2.002,9.1797,7.372999999999999,5.0781,3.8086
-0.73242,0.19530999999999998,1.7578,2.002,2.6367,1.8066,6.9824,3.6621,3.3203,2.5879,1.9531,2.1484,1.123,9.7168,7.0801,4.0039,2.832,2.0996,7.2754,5.4688,3.3203,3.2227
-0.58594,0.6835899999999999,1.8555,2.4414,3.418,4.4922,5.7129,3.3691,3.0762,2.9785,3.7109,6.1523,5.0781,8.9844,6.7871,4.834,5.4199,5.6641,7.666,6.2012,5.4199,4.7363
2.3438,6.0547,4.541,6.6406,5.7129,10.107000000000001,9.375,9.2285,5.0781,9.0332,8.0566,13.867,9.7168,14.014000000000001,8.7891,10.205,10.937999999999999,11.182,10.205,10.4,10.156,9.1797
-2.002,-0.78125,2.6855,0.09765599999999999,2.1973,2.0996,5.7617,3.7109,3.7598,3.6133,5.8105,6.9336,5.7129,5.6641,6.6895,4.2969,5.5176,6.4453,4.3945,5.6152,5.7129,4.541
4.7363,7.3242,10.352,9.0332,10.107000000000001,11.572000000000001,8.0566,11.23,10.595999999999998,14.404000000000002,13.623,16.748,14.16,11.815999999999999,12.061,12.597999999999999,15.479000000000001,15.82,10.790999999999999,13.135,14.648,11.23
-0.14648,4.8828,4.8828,7.1289,4.1992,10.352,2.3926,6.542999999999999,5.127000000000001,10.84,8.6914,14.745999999999999,10.937999999999999,8.1055,5.1758,9.2773,9.7168,11.182,3.2715,5.8105,7.5684,2.9785
1.0254,5.6641,7.1289,7.959,5.3223,8.2031,3.5156,6.6895,5.5176,10.4,7.7637,12.645999999999999,10.645,5.957000000000001,3.9551,6.8359,8.5449,10.645,0.73242,2.5879,5.5664,0.29297
7.959,8.2031,11.523,9.6191,9.6191,10.449000000000002,6.5918,6.8359,8.7402,8.7891,10.059,13.477,15.234000000000002,3.5645,4.0039,2.8809,8.1055,11.620999999999999,-1.0742,0.048827999999999996,4.1992,-1.9531
10.498,9.7656,12.597999999999999,9.5703,11.035,12.012,6.7383,5.8594,8.1543,8.1543,10.595999999999998,15.722999999999999,19.775,1.2695,2.7344,1.5625,8.1543,12.402000000000001,-3.125,-1.709,2.7832,-2.9297
5.4688,6.542999999999999,6.9824,3.2227,5.4199,5.5664,3.4668,0.48828,2.0996,2.6367,4.834,9.2285,13.915999999999999,-6.3477,-3.7109,-5.4688,2.5391,7.3242,-7.8125,-6.0547,-0.78125,-3.7598
0.78125,3.8086,2.8809,-0.97656,-0.97656,0.19530999999999998,0.048827999999999996,-2.7344,-3.2227,-3.8574,-1.416,1.8555,3.8086,-9.9609,-8.7402,-9.3262,-3.7598,0.09765599999999999,-10.84,-10.205,-4.4434,-5.127000000000001
3.9063,5.2246,3.8086,2.6855,3.5645,4.7363,1.2207,-0.78125,-2.1973,-0.8789100000000001,2.8809,6.1523,5.8105,-8.7402,-6.8848,-5.5176,1.2695,5.1758,-7.5684,-4.3945,0.97656,0.24414
6.7383,4.3945,5.5176,2.4902,7.372999999999999,7.2266,1.4648,-2.832,-0.24414,1.2695,7.372999999999999,8.9844,9.8633,-8.8379,-3.7109,-2.832,4.8828,8.1543,-4.248,-1.416,4.6387,2.4414
5.8105,3.8574,4.0039,5.127000000000001,6.7383,7.666,-2.0508,-4.9316,-2.9297,2.1484,6.3477,8.4473,7.8125,-10.790999999999999,-5.9082,-3.1738,1.4648,4.4922,-7.1289,-4.7852,0.39063000000000003,-2.7832
7.372999999999999,-0.58594,3.6621,3.5645,8.1055,6.3965,-3.418,-9.0332,-5.3223,-0.39063000000000003,5.8594,6.5918,7.666,-12.645999999999999,-6.7871,-5.9082,2.4902,4.9316,-7.0313,-3.0762,1.6113,-2.5391
7.9102,-2.6367,2.7344,1.9531,5.6152,3.1738,-3.3691,-9.2773,-4.7852,-2.1484,3.7109,3.3691,6.0547,-9.7656,-4.4434,-5.4199,-0.29297,2.8809,-3.5645,-2.5391,0.3418,-1.1719
0.8300799999999999,-6.25,-3.418,-1.1719,-2.1973,-3.0273,-8.252,-10.352,-9.7656,-5.7129,-5.3223,-4.4922,-2.832,-8.5938,-7.8125,-6.9824,-6.4453,-5.3711,-4.2969,-5.7129,-4.4434,-3.1738
-4.3945,-13.184000000000001,-8.8379,-6.2988,-8.5938,-6.542999999999999,-14.99,-14.99,-13.867,-10.449000000000002,-11.084000000000001,-8.252,-6.25,-10.107000000000001,-10.4,-8.9355,-8.3496,-8.5449,-4.5898,-6.1035,-5.3223,-2.832
0.8789100000000001,-10.985999999999999,-3.5156,-4.0527,-2.002,-4.3457,-7.372999999999999,-9.8145,-5.3223,-5.8105,-3.6133,-5.5664,0.39063000000000003,-1.9043,0.5371100000000001,-1.709,-2.002,-3.0273,5.0781,4.3457,4.834,9.8633
1.2695,-7.6172,-2.2949,-3.6621,-1.6602,-2.3438,-4.834,-5.5176,-4.1016,-3.6621,-3.7598,-4.6875,1.2695,2.5391,2.5391,0.3418,0.048827999999999996,-1.0254,8.0566,6.8848,6.1523,11.815999999999999
4.0527,-0.14648,0.43945,2.832,1.4648,5.1758,-1.416,-0.048827999999999996,-1.9043,1.0254,-0.048827999999999996,2.7344,4.7852,7.2266,3.9063,5.9082,4.248,4.7363,10.059,8.4473,8.7402,12.158
9.7656,4.248,6.6895,6.0059,6.2012,6.3477,5.3711,4.6387,3.6133,3.9063,3.9551,3.4668,6.25,10.645,8.0078,6.9824,6.6895,6.0547,13.720999999999998,10.547,9.7168,13.33
14.16,9.5215,12.695,8.5938,10.107000000000001,6.2988,13.525,10.498,10.059,7.0801,8.9844,5.7617,8.8379,15.967,14.745999999999999,10.059,9.9121,7.8125,17.334,13.525,11.328,15.869000000000002
6.1523,5.3223,6.9336,4.0527,3.125,0.048827999999999996,7.5195,7.5684,5.4688,2.9785,3.2715,1.9043,2.0508,12.597999999999999,9.5215,5.8594,4.0039,2.7832,12.012,7.5195,6.1523,9.3262
6.1523,5.4199,9.082,3.1738,5.127000000000001,-0.48828,9.9121,8.7891,8.0566,4.4434,5.0781,1.8555,2.9297,12.450999999999999,11.815999999999999,5.3223,6.2012,3.6133,13.427999999999999,8.9844,7.1289,9.6191
3.5645,0.78125,5.127000000000001,0.39063000000000003,2.2461,-0.3418,4.0527,4.541,4.1016,0.8300799999999999,2.832,1.4648,5.0781,7.666,6.4941,1.0742,2.4414,2.3926,6.4453,2.6855,2.5391,2.0996
5.6641,4.834,7.5195,5.2734,7.1777,8.4961,8.1055,7.9102,6.7871,4.2969,7.5684,9.7168,15.039000000000001,9.668,7.4219,3.418,6.7871,9.375,6.25,4.3945,7.0313,4.2969
1.8555,0.14648,2.6367,0.048827999999999996,4.1992,5.8105,2.9297,0.8789100000000001,-0.43945,-1.9531,2.3438,5.6152,11.279000000000002,0.3418,-1.8555,-5.3711,-0.29297,3.125,-4.9316,-6.9824,-3.2227,-9.5215
2.3926,-0.24414,2.2461,-0.48828,2.6855,1.4648,1.4648,-1.8555,-2.3926,-4.1992,0.048827999999999996,2.5391,5.2734,-5.9082,-6.542999999999999,-10.059,-5.7129,-0.58594,-13.477,-14.6,-8.7891,-18.994
-0.97656,1.6113,-1.416,1.5137,-0.24414,2.7832,-3.125,-2.4902,-7.666,-3.5156,-4.3457,3.0762,1.5137,-10.985999999999999,-13.965,-13.037,-7.666,-2.0508,-20.264,-19.775,-13.574000000000002,-24.316
-2.3438,0.97656,-0.8789100000000001,1.5625,-2.1973,-0.048827999999999996,-4.1016,-4.0527,-6.6895,-2.002,-2.8809,4.0527,1.8555,-10.4,-13.720999999999998,-10.742,-7.2754,-0.8789100000000001,-20.02,-18.75,-12.597999999999999,-22.412
-2.4902,2.0508,0.97656,3.0762,-2.7344,-0.8300799999999999,-3.7109,-3.125,-5.7617,-0.29297,-3.0762,2.9297,0.048827999999999996,-8.7891,-11.963,-8.7402,-5.4199,-0.58594,-17.236,-15.918,-10.937999999999999,-18.018
-1.3672,1.7578,1.9531,2.0508,-1.6113,-1.709,-2.8809,-3.2227,-4.248,-0.48828,-1.5137,2.6367,0.19530999999999998,-9.3262,-10.4,-8.5938,-5.4199,-0.8789100000000001,-14.697000000000001,-14.453,-9.8145,-14.99
3.2715,5.6152,8.8379,5.8594,4.2969,3.0762,3.5645,1.0742,2.832,4.7363,5.4199,7.3242,7.1777,-4.7363,-1.709,-2.9785,0.58594,4.3945,-6.3477,-6.1035,-2.4414,-5.6152
5.4688,8.252,9.8145,8.8867,4.834,4.9805,2.0508,2.3926,3.4668,6.542999999999999,4.7852,6.3965,4.1016,-4.0527,-2.0508,-1.3672,1.3184,2.2461,-5.3711,-5.3711,-2.9785,-6.8359
6.9824,5.8594,10.84,8.8379,6.2988,3.5645,1.6602,1.6113,4.7852,8.2031,6.542999999999999,5.1758,2.0996,-2.8809,1.9043,2.2949,2.0508,2.0996,-3.2227,-1.9043,-0.58594,-3.5156
7.372999999999999,5.8105,10.790999999999999,10.352,6.9336,5.8105,0.19530999999999998,1.2207,5.127000000000001,10.352,7.4219,5.5664,0.97656,-2.9785,2.2461,5.8105,4.7363,4.1992,-2.3926,0.8789100000000001,2.002,-2.6367
0.8789100000000001,0.3418,5.4199,5.127000000000001,3.2227,0.39063000000000003,-1.9531,-2.2461,2.2461,6.542999999999999,3.8086,0.58594,-4.6875,-5.1758,0.97656,3.0762,2.832,0.09765599999999999,-3.8086,-1.0254,-0.48828,-5.0293
1.2695,-3.125,5.0293,5.6641,6.6406,4.1016,-0.63477,-2.9785,3.6133,7.9102,7.6172,3.9551,2.1484,-2.2949,5.3223,5.1758,5.127000000000001,3.2227,1.123,2.6855,2.7832,-1.0254
-0.048827999999999996,-4.0527,4.2969,5.3223,8.3008,5.4199,0.24414,-0.6835899999999999,4.9805,9.668,10.156,7.2754,5.6152,2.8809,8.8379,7.9102,8.9355,7.4219,7.3242,7.959,7.5684,4.8828
-6.6895,-5.7617,-0.73242,1.8555,1.2207,0.0,-1.6602,-2.4414,0.8789100000000001,5.7617,4.0527,2.0508,-3.9551,3.9063,5.8105,4.5898,3.6621,0.78125,6.0059,3.9551,2.2461,1.709
-3.9063,-4.7363,1.3184,2.2461,0.8300799999999999,-0.63477,-0.24414,-1.709,1.123,3.8574,2.8809,1.6602,-0.14648,5.3223,5.3711,3.8086,3.7109,3.3691,8.3496,5.6152,4.1016,5.1758
-2.9785,-4.0527,1.2207,1.3184,-0.048827999999999996,-2.4902,-1.3184,-2.1973,-0.97656,2.4902,2.0508,1.8066,2.3926,4.2969,3.7598,1.4648,2.7344,3.4668,4.9805,2.8809,3.2715,1.4648
-6.4453,-3.8086,-1.5625,-0.6835899999999999,-5.4199,-6.542999999999999,-0.97656,-0.73242,-3.8574,-0.19530999999999998,-3.3691,-1.1719,-1.6113,4.1016,-0.24414,-1.5625,-2.1973,-2.2949,0.048827999999999996,-2.0508,-2.2949,-5.8105
-6.542999999999999,-3.7109,-3.4668,-1.3672,-6.7383,-6.4941,-3.5156,-2.1973,-7.6172,-3.5645,-6.8359,-3.6133,-6.2988,-0.8300799999999999,-5.4199,-5.5176,-5.2246,-4.6387,-4.4434,-5.3711,-4.7363,-7.1289
-0.97656,0.14648,-0.09765599999999999,4.1992,-1.0254,1.4648,-0.29297,0.97656,-3.9063,0.63477,-0.5371100000000001,4.1016,1.9531,3.1738,-1.9531,-1.1719,-0.3418,1.1719,-1.8555,-2.8809,-1.5137,-5.6152
-0.6835899999999999,-1.1719,-0.14648,5.3223,1.6113,3.0273,0.8789100000000001,2.5391,-2.5391,1.5625,0.24414,2.8809,-1.2695,4.1016,-1.3184,-0.97656,-1.0742,-0.5371100000000001,-1.9531,-4.0527,-3.3691,-5.6641
10.985999999999999,4.3457,10.302999999999999,12.793,13.33,12.744000000000002,6.8848,6.3965,6.25,7.5684,10.352,9.4727,6.7383,6.2012,5.8105,1.3184,5.4688,6.1035,1.5625,-0.39063000000000003,0.14648,-3.418
14.6,7.9102,13.232000000000001,18.799,17.041,18.945,6.0547,8.8867,7.2754,11.719000000000001,13.427999999999999,15.527000000000001,11.084000000000001,7.5684,6.1035,4.7363,6.9336,7.959,0.9277299999999999,-1.123,1.0254,-4.1504
13.77,10.205,13.280999999999999,20.067999999999998,15.527000000000001,17.627,4.9316,10.302999999999999,7.6172,14.502,12.158,16.455,11.67,8.0078,5.127000000000001,6.5918,8.3008,9.6191,0.97656,0.14648,1.9043,-4.0527
16.064,6.0059,13.33,16.016,13.818,11.425999999999998,4.541,3.4668,5.9082,7.6172,10.790999999999999,11.67,14.648,0.97656,3.6621,1.2207,5.127000000000001,7.5684,-2.3926,-2.002,1.0254,-5.4199
10.449000000000002,4.4434,9.2285,11.328,5.8594,5.2246,0.6835899999999999,0.58594,-0.3418,3.2227,3.0273,6.1523,6.4453,-0.97656,-2.832,-1.3672,1.709,4.4922,-4.2969,-2.7344,-0.048827999999999996,-3.9063
4.7363,-2.2461,4.1016,1.7578,-0.24414,-3.8574,-1.123,-5.3223,-4.3457,-4.0527,-1.709,-1.5137,1.5625,-6.5918,-5.2734,-8.0078,-2.832,-1.3184,-5.6152,-5.127000000000001,-3.7598,-5.0293
-1.8555,-6.7871,-3.125,-4.4434,-5.957000000000001,-8.5938,-4.1016,-8.6426,-10.156,-9.2285,-7.8613,-6.7871,-3.7598,-10.107000000000001,-9.9609,-12.402000000000001,-10.449000000000002,-8.252,-9.8633,-10.4,-10.790999999999999,-9.3262
-0.97656,-3.7598,-3.6133,-1.8555,-4.1504,-2.4414,-6.3477,-6.9824,-11.377,-7.2754,-8.5938,-6.1035,-5.1758,-10.595999999999998,-12.354000000000001,-12.061,-11.182,-9.7168,-10.742,-11.67,-12.744000000000002,-10.985999999999999
-1.3672,-9.5703,-5.4199,-6.2012,-5.0293,-7.4219,-6.3965,-11.67,-12.890999999999998,-13.379000000000001,-10.254000000000001,-11.475,-8.2031,-13.867,-13.720999999999998,-17.676,-16.406,-15.967,-13.965,-15.575999999999999,-17.92,-13.915999999999999
-5.6152,-9.7656,-10.059,-6.2988,-10.693,-9.8145,-9.8633,-12.305,-16.992,-15.527000000000001,-16.309,-14.745999999999999,-13.037,-15.039000000000001,-18.652,-19.58,-20.85,-20.508000000000003,-16.406,-19.385,-21.631,-16.455
-4.541,-13.720999999999998,-10.449000000000002,-11.377,-12.012,-14.307,-9.4727,-16.846,-17.383,-18.75,-16.699,-17.92,-13.184000000000001,-18.018,-18.359,-21.776999999999997,-21.094,-20.508000000000003,-16.211,-19.287,-21.631,-15.039000000000001
-8.3496,-16.553,-14.795,-11.620999999999999,-14.209000000000001,-13.623,-11.523,-16.26,-18.945,-17.676,-17.773,-14.795,-11.815999999999999,-14.014000000000001,-16.65,-17.627,-19.189,-18.213,-12.597999999999999,-15.479000000000001,-16.797,-10.107000000000001
-18.164,-24.463,-23.193,-21.484,-22.168000000000003,-21.924,-14.844000000000001,-22.021,-26.025,-24.756,-24.658,-22.412,-20.166,-18.066,-20.752,-23.584,-23.682,-22.51,-14.745999999999999,-16.942999999999998,-18.164,-10.790999999999999
-22.412,-25.781,-26.074,-22.314,-24.561,-19.727,-15.479000000000001,-22.119,-28.076,-24.756,-24.854,-19.092,-18.359,-15.43,-22.559,-21.289,-22.363000000000003,-19.971,-14.648,-17.676,-17.725,-12.842
-17.285,-23.779,-20.459,-18.652,-18.018,-14.745999999999999,-10.302999999999999,-18.359,-20.85,-21.289,-18.506,-14.014000000000001,-8.1055,-12.158,-16.699,-18.457,-16.797,-13.037,-11.084000000000001,-12.890999999999998,-12.988,-8.5938
-23.291,-24.854,-26.025,-22.851999999999997,-23.877,-16.553,-15.137,-20.361,-27.148000000000003,-23.389,-24.561,-15.283,-10.985999999999999,-14.110999999999999,-22.217,-21.191,-21.338,-15.967,-15.137,-17.139,-15.967,-11.328
-21.045,-20.459,-21.68,-20.02,-22.461,-17.627,-11.084000000000001,-16.016,-22.656,-21.289,-22.803,-14.892999999999999,-10.059,-12.450999999999999,-19.287,-19.238,-19.58,-15.234000000000002,-14.550999999999998,-15.869000000000002,-14.404000000000002,-10.205
-15.770999999999999,-12.5,-13.77,-16.699,-18.555,-16.553,-3.3203,-7.5195,-13.915999999999999,-15.234000000000002,-17.725,-11.963,-7.666,-6.3965,-10.742,-13.379000000000001,-12.450999999999999,-9.5215,-6.7383,-8.5449,-7.4219,-3.125
-8.7891,-5.7617,-7.1777,-10.547,-12.450999999999999,-10.985999999999999,2.7344,-1.416,-6.8359,-9.6191,-11.182,-8.2031,-3.8574,-0.43945,-3.8086,-7.372999999999999,-8.0566,-7.3242,-1.6113,-4.5898,-4.7363,0.0
-4.4434,-6.542999999999999,-5.0293,-9.5215,-7.5195,-7.1289,0.48828,-3.3203,-6.6895,-9.7656,-7.666,-6.9824,-3.8574,-2.1484,-4.3457,-7.5684,-6.1035,-5.6641,-1.6113,-3.5645,-2.832,0.29297
-0.19530999999999998,-3.4668,-0.5371100000000001,-4.3457,-0.63477,1.2695,5.8105,1.416,-0.97656,-4.8828,-0.5371100000000001,-0.5371100000000001,2.002,3.5156,2.2949,-2.2949,0.39063000000000003,0.8300799999999999,6.0547,3.1738,3.3691,6.3965
1.123,-3.2715,-0.63477,-2.0508,2.4414,3.1738,6.7383,2.3926,-1.2207,-2.832,0.39063000000000003,0.43945,0.97656,4.1016,1.3672,-3.7109,-2.0996,-1.9043,1.6602,-1.8555,-2.0996,-1.3184
4.1504,-2.6855,0.78125,0.58594,4.9316,7.4219,4.0039,1.4648,-1.2207,-0.9277299999999999,2.9297,3.5156,7.0801,1.8555,0.9277299999999999,-2.832,0.19530999999999998,1.2207,1.9531,0.24414,-0.29297,0.29297
-4.5898,-9.2773,-8.5938,-5.0781,-4.3457,0.048827999999999996,-2.2949,-4.9316,-8.7402,-6.8359,-5.4199,-1.416,1.0742,-2.7832,-5.2246,-5.957000000000001,-6.1523,-3.9063,-3.125,-4.3945,-5.1758,-3.3203
-6.9824,-11.767999999999999,-9.7168,-8.5449,-7.3242,-6.1035,-1.9531,-8.2031,-8.5449,-10.059,-7.8125,-8.0566,-3.9551,-6.2988,-6.3965,-7.7148,-7.8125,-6.6895,-4.1992,-5.6152,-6.0059,-3.3203
-9.0332,-14.550999999999998,-10.937999999999999,-12.012,-11.719000000000001,-11.377,-6.8359,-13.037,-12.012,-13.867,-11.963,-12.305,-5.6152,-13.379000000000001,-11.279000000000002,-12.890999999999998,-12.450999999999999,-10.254000000000001,-11.182,-11.035,-10.352,-8.4961
-11.084000000000001,-11.182,-11.719000000000001,-10.156,-11.963,-8.8379,-7.2754,-10.059,-12.402000000000001,-10.937999999999999,-12.549000000000001,-8.3984,-4.7363,-12.5,-11.133,-9.4727,-10.84,-7.7637,-10.01,-9.2773,-8.8867,-7.372999999999999
-4.4922,-3.2227,-4.1016,-1.9531,-4.541,-1.416,-4.5898,-3.5645,-5.8594,-3.0762,-5.9082,-3.2227,-2.9785,-7.2266,-6.7383,-4.1992,-3.6621,-1.6113,-6.3477,-3.7598,-3.0273,-3.1738
-5.5176,-4.4922,-5.9082,-3.5645,-7.4707,-4.5898,-8.3008,-8.1055,-9.8633,-6.9336,-9.5703,-7.4707,-8.6426,-12.061,-12.695,-9.8145,-10.645,-8.3008,-14.502,-11.963,-10.985999999999999,-11.767999999999999
-2.002,-4.4434,-4.541,-1.5137,-3.9551,-2.0508,-12.207,-10.4,-9.1309,-7.3242,-8.8867,-8.2031,-9.5703,-15.625,-13.915999999999999,-10.937999999999999,-10.790999999999999,-9.2773,-16.016,-14.014000000000001,-12.793,-16.113
7.1777,1.6602,4.0527,4.541,5.1758,4.8828,-4.6875,-6.0059,-1.1719,-0.19530999999999998,1.2207,-1.0742,-0.8789100000000001,-9.8145,-5.3711,-4.7363,-2.9785,-2.0996,-9.082,-7.0313,-5.5176,-8.3984
7.1777,-0.73242,4.1992,6.8848,7.5684,6.2012,-6.4453,-7.4219,0.09765599999999999,3.9551,4.9805,2.9785,2.7344,-7.8125,-2.1484,-0.09765599999999999,0.43945,0.8789100000000001,-6.1523,-3.125,-2.2949,-4.248
0.8789100000000001,-7.666,-3.3203,2.9297,2.4414,3.8574,-13.477,-12.695,-7.3242,-1.0742,-0.14648,1.0742,-1.7578,-10.693,-6.8848,-3.6621,-2.0996,-1.6113,-7.0801,-5.2246,-4.7363,-5.6641
-5.8105,-15.186,-10.790999999999999,-3.6133,-4.8828,-2.6855,-15.088,-16.406,-13.037,-6.2988,-6.0059,-4.541,-6.4941,-10.156,-9.082,-6.5918,-7.6172,-7.3242,-6.9336,-7.3242,-8.3008,-6.1035
-6.0059,-14.355,-8.9844,-3.2715,-3.2715,-1.7578,-8.3008,-10.01,-8.5449,-4.7363,-3.418,-2.1484,-0.19530999999999998,-2.4414,-2.832,-2.832,-2.4902,-1.8555,1.7578,-1.0742,-3.4668,-0.29297
-1.7578,-10.302999999999999,-5.8105,-1.416,-0.24414,0.39063000000000003,-1.2695,-3.8574,-3.7598,-3.2227,-0.48828,0.09765599999999999,3.0273,4.4922,2.2949,-1.0254,-1.2207,-1.7578,4.8828,1.1719,-2.4414,-0.19530999999999998
-5.127000000000001,-7.1777,-6.7871,-0.19530999999999998,-3.2227,-1.123,0.63477,1.8555,-3.2715,-1.5137,-4.834,-2.2949,-4.1992,8.1543,1.4648,-0.3418,-3.9063,-6.1035,3.2715,-1.8555,-6.2988,-4.6387
1.5137,2.2949,2.832,4.248,3.7598,2.8809,11.279000000000002,10.84,5.6152,4.0527,1.9043,0.9277299999999999,1.1719,14.404000000000002,9.5703,4.3457,3.418,1.709,10.645,6.4453,1.8555,3.9063
4.9316,7.1777,6.7871,9.9121,7.3242,5.5664,15.770999999999999,15.380999999999998,10.352,8.7402,6.9824,5.2246,2.2461,18.457,12.939,9.2773,6.7383,4.541,13.280999999999999,9.5703,4.8828,5.7129
2.1484,9.1797,5.6641,7.959,3.8086,3.8086,16.406,16.309,8.252,8.252,3.4668,2.832,-4.2969,17.139,10.449000000000002,8.2031,4.8828,2.002,11.425999999999998,7.6172,3.3691,4.9316
-1.9531,1.0254,0.48828,0.9277299999999999,-0.78125,-2.5391,9.9609,7.4707,1.5137,-0.29297,-0.78125,-3.7109,-7.9102,9.2285,4.834,0.048827999999999996,-0.97656,-3.7598,5.6641,0.5371100000000001,-3.1738,0.0
-2.1484,-0.24414,-2.4414,1.8555,-1.416,0.14648,5.6152,4.3945,-2.2461,-0.3418,-2.5391,-1.3184,-7.666,5.5664,-0.39063000000000003,-0.97656,-3.3691,-5.6152,0.43945,-3.5156,-6.0059,-4.3457
5.4688,1.1719,3.9063,3.6133,6.25,4.2969,8.4473,4.9316,1.8555,1.9531,3.2227,2.1484,0.48828,4.248,3.5645,-1.0742,1.0742,-1.709,1.8066,-0.3418,-2.7832,-1.6113
-0.73242,-2.3438,-3.2227,0.6835899999999999,-1.1719,2.0996,-1.4648,-1.6602,-6.1523,-3.5156,-3.9063,-0.6835899999999999,-5.3223,-1.0742,-5.6641,-5.1758,-5.8594,-6.6895,-7.2266,-6.8848,-8.9844,-6.9824
5.5176,-4.0527,1.6113,2.6855,4.5898,3.5645,-2.4414,-5.6152,-3.7598,-2.6855,1.123,0.6835899999999999,4.9316,-5.8105,-5.0781,-5.9082,-2.1973,-0.78125,-8.5938,-7.2754,-5.1758,-6.4453
12.5,6.9336,10.254000000000001,13.477,12.012,12.255999999999998,3.6621,4.2969,4.1016,6.9824,7.959,9.3262,10.107000000000001,3.0762,1.123,1.7578,5.5664,6.8359,0.73242,0.97656,3.1738,3.0762
9.5215,5.8594,8.5449,10.302999999999999,7.5684,5.2246,1.3184,2.4414,1.9043,2.4902,2.832,1.8555,1.709,-1.3672,-2.3926,-4.1992,-1.8066,-1.5137,-6.0547,-5.7617,-4.1992,-5.6641
12.842,8.3496,13.184000000000001,11.328,9.9121,5.5664,5.1758,3.3691,4.6875,2.6367,4.7852,2.002,3.7109,-1.0254,-0.09765599999999999,-4.6387,0.39063000000000003,1.5137,-3.4668,-3.7598,-2.2461,-2.9297
14.258,9.1797,13.427999999999999,11.425999999999998,9.6191,5.4688,3.8574,2.5879,3.8086,1.9043,4.7363,2.002,4.7852,-2.9297,-2.002,-6.0547,-1.3672,1.0742,-4.9316,-5.4199,-3.5645,-3.7598
10.84,10.547,10.645,11.963,4.4922,2.7344,-0.8789100000000001,0.39063000000000003,-1.123,0.97656,-1.9531,-2.0996,-8.1055,-7.666,-8.6426,-7.372999999999999,-5.4688,-5.0781,-10.352,-9.7656,-8.6914,-8.8867
12.549000000000001,4.7363,11.035,9.8145,7.4219,2.5879,-3.1738,-4.1504,-1.5137,-1.2207,1.8066,-1.8066,-4.4434,-11.23,-7.4219,-8.6426,-2.7832,-2.7344,-10.645,-8.7891,-7.2266,-9.082
9.7656,5.3223,6.9336,12.109000000000002,5.9082,5.8105,-5.9082,-3.2227,-2.6367,3.418,2.0508,3.6133,-2.2461,-7.372999999999999,-6.3477,-1.9531,-1.0254,-1.1719,-8.8379,-6.8848,-4.0527,-5.127000000000001
9.6191,-0.63477,5.957000000000001,7.372999999999999,7.7637,3.9063,-7.959,-9.8145,-3.7109,0.48828,3.3691,1.4648,1.4648,-13.672,-6.7383,-5.7617,-0.58594,-0.5371100000000001,-10.449000000000002,-7.2754,-3.4668,-5.957000000000001
4.3945,-8.252,-1.3184,1.4648,2.5879,0.5371100000000001,-13.574000000000002,-16.455,-9.7168,-4.9316,-0.29297,-1.8555,-0.78125,-17.529,-11.035,-7.6172,-3.6621,-2.3438,-12.5,-9.1309,-4.6387,-6.542999999999999
1.3672,-5.5664,-4.3945,2.6855,0.24414,4.0039,-10.4,-11.865,-9.8633,-1.709,-2.9785,0.19530999999999998,-0.8789100000000001,-9.3262,-8.5938,-2.002,-1.1719,-0.63477,-5.7129,-4.248,-1.6113,-0.9277299999999999
-3.2715,-9.4238,-9.3262,-4.5898,-4.4434,-0.63477,-9.668,-13.037,-12.793,-6.0059,-7.2266,-4.3457,-4.834,-8.7891,-9.2285,-4.6387,-5.0293,-5.0293,-6.2988,-5.7129,-3.1738,-1.709
-7.8125,-13.77,-13.477,-8.0078,-7.666,-2.4414,-10.742,-13.280999999999999,-12.939,-6.8359,-7.7148,-3.0273,-2.6855,-6.6406,-7.3242,-2.9297,-3.8086,-2.9297,-3.5156,-2.2949,-0.8300799999999999,-0.63477
-5.6152,-14.892999999999999,-11.182,-10.595999999999998,-4.6875,-4.7363,-2.5879,-9.9121,-8.0078,-6.7871,-4.4434,-4.0527,-0.24414,-1.6602,0.8789100000000001,-0.8789100000000001,0.43945,-0.24414,5.3223,4.8828,3.6621,6.9824
-8.4473,-14.062999999999999,-12.305,-10.205,-7.666,-6.2988,-0.09765599999999999,-5.6641,-7.6172,-6.4453,-5.2734,-3.2715,-3.5645,4.7363,2.7832,2.3438,0.09765599999999999,-0.78125,9.4727,7.6172,5.2734,10.449000000000002
-5.4688,-10.254000000000001,-8.6426,-6.9336,-2.9785,-1.6113,4.0039,-0.048827999999999996,-3.125,-2.5879,0.5371100000000001,3.2227,3.2227,10.889000000000001,7.8125,7.4707,7.1289,7.4219,16.65,14.453,11.084000000000001,17.48
-12.695,-16.895,-14.550999999999998,-15.43,-9.5703,-9.4238,0.14648,-6.0059,-9.8145,-10.205,-5.8105,-4.4434,-1.3184,4.4434,1.4648,-1.1719,0.14648,-0.14648,9.2773,6.7871,3.2227,9.7656
-8.2031,-9.7656,-9.8145,-9.668,-5.4199,-4.6387,4.9805,-0.43945,-5.2246,-5.5176,-2.0996,-0.8300799999999999,-0.14648,8.1055,4.4922,2.2461,2.8809,2.1484,11.719000000000001,9.4727,6.5918,12.354000000000001
-1.0254,-2.9785,-1.123,-3.5156,2.7832,2.3438,8.4473,4.8828,1.5625,1.123,4.3945,4.8828,6.8848,10.449000000000002,9.082,6.6406,8.4961,7.3242,13.33,12.988,10.889000000000001,12.597999999999999
0.97656,-2.6367,-0.39063000000000003,-3.125,1.0254,-0.14648,6.3477,3.418,0.73242,-0.58594,2.4902,-0.3418,2.0508,9.082,7.4707,4.6875,3.5645,1.7578,9.3262,7.8613,5.2734,7.4219
3.7109,1.3184,3.0762,0.09765599999999999,2.832,-0.19530999999999998,9.5215,5.3711,3.1738,0.8789100000000001,2.1484,-1.2695,-0.24414,9.668,7.1289,4.3457,4.3457,1.9043,9.4238,7.9102,5.5176,9.1309
5.3711,1.5137,4.9805,1.6602,4.7363,3.2227,6.8848,5.2246,4.6875,3.1738,5.4199,3.418,3.5645,7.6172,7.0313,6.1523,7.5195,6.7871,9.2773,8.1055,7.666,9.1797
3.3203,2.002,3.8086,-0.29297,3.2227,-0.58594,6.0547,4.834,5.0781,2.0508,4.6875,3.0273,3.0762,6.1035,7.2754,5.2734,6.0059,5.3223,8.6914,7.3242,7.5684,9.9121
-1.0254,0.8300799999999999,1.416,-1.8066,0.048827999999999996,-2.6855,3.2715,3.3203,1.2695,0.39063000000000003,2.1484,1.1719,0.48828,3.3203,3.3203,2.5391,5.7617,4.7363,6.9336,6.4453,7.8125,11.23
2.0508,1.6113,3.5645,0.0,1.8555,-0.78125,1.5625,1.3672,1.5625,0.6835899999999999,4.541,2.832,1.5625,1.5625,2.0508,2.5879,5.7129,4.8828,4.5898,5.8105,7.0313,7.9102
3.7598,5.9082,4.541,5.5176,2.9297,4.9805,-0.43945,5.3223,1.2207,5.3711,2.6367,5.2246,-1.2207,4.3457,0.78125,5.3711,6.25,5.0781,3.5645,5.127000000000001,6.6895,7.4219
11.67,10.352,11.620999999999999,11.035,9.375,8.9355,2.4902,7.2266,5.7617,8.4961,6.9336,6.4941,3.4668,3.8574,3.5645,6.3477,7.1289,6.0059,3.418,5.0781,6.0059,4.6387
15.918,12.255999999999998,14.795,17.529,14.062999999999999,15.380999999999998,3.2227,8.9355,8.3496,14.404000000000002,9.668,10.84,8.1543,6.5918,5.957000000000001,10.547,8.9355,7.4219,4.7363,7.5684,7.8613,7.4707
8.0566,5.3223,7.7148,10.254000000000001,7.2754,7.3242,-2.3438,2.7832,2.4902,8.0078,2.7832,3.7109,2.0508,0.0,0.8789100000000001,4.1504,4.1992,1.7578,0.9277299999999999,3.4668,3.7109,4.0527
4.541,2.2461,6.1035,7.5195,4.0039,1.9531,-2.3926,1.6602,3.6621,6.9336,2.1973,0.29297,-0.09765599999999999,0.73242,2.8809,4.248,2.4902,-0.58594,2.8809,3.9063,3.0762,3.9551
2.1973,1.0742,4.6875,6.1035,1.6602,0.24414,-2.1484,0.48828,2.4414,6.6895,1.0254,-1.2695,-1.5625,1.1719,2.6367,6.1035,4.1016,0.48828,4.3457,4.9805,4.1016,4.8828
-0.78125,-2.4414,1.8066,2.7832,-0.63477,-2.1973,-3.1738,-1.709,0.14648,5.3223,0.24414,-1.0254,-0.09765599999999999,-0.97656,1.6602,4.9316,2.832,0.09765599999999999,2.5879,2.6367,1.6602,0.73242
-6.1035,-8.5938,-4.1016,-5.0293,-6.1523,-7.8125,-4.1992,-6.4941,-5.0293,-1.6113,-5.0781,-6.6895,-4.0039,-4.9316,-2.832,-2.0508,-4.9805,-7.7637,-4.2969,-4.9316,-7.5684,-8.4961
-7.6172,-11.035,-6.9824,-7.3242,-7.959,-7.3242,-6.2988,-8.3984,-8.6426,-5.0781,-7.5195,-7.5195,-4.1016,-6.542999999999999,-5.4199,-4.1504,-5.5176,-8.252,-4.4922,-6.0547,-8.9355,-8.8867
-4.248,-11.67,-6.4941,-6.2988,-3.125,-4.5898,0.3418,-8.1543,-5.7617,-4.8828,-3.1738,-2.9785,1.4648,-3.0273,-1.123,-1.7578,-2.4902,-4.0527,-0.09765599999999999,-1.9043,-4.8828,-3.6621
-7.666,-16.455,-11.182,-10.937999999999999,-7.9102,-9.375,-2.002,-11.328,-11.328,-10.302999999999999,-8.2031,-8.1055,-4.7363,-4.4434,-5.5664,-6.1523,-6.5918,-8.252,-1.709,-3.8574,-6.8848,-1.416
-0.97656,-11.084000000000001,-6.8848,-6.2012,-3.2715,-3.6621,1.2207,-8.3008,-8.6426,-8.6426,-4.6875,-2.9785,2.0996,-1.0742,-2.832,-4.3457,-2.0508,-2.3926,3.9551,1.7578,-1.2695,5.7129
-6.2012,-9.2773,-10.937999999999999,-6.3477,-7.6172,-3.8086,-1.0742,-6.1523,-12.158,-7.2266,-7.8613,-1.1719,-1.5625,1.2207,-4.9316,-3.3203,-3.9551,-3.0273,3.1738,1.6602,1.0254,8.8379
-6.9336,-8.7891,-10.84,-6.9824,-8.6914,-6.2988,-0.5371100000000001,-4.1016,-12.549000000000001,-8.252,-9.6191,-5.3223,-7.959,0.43945,-5.7129,-5.4199,-4.834,-5.7617,2.3926,1.0742,0.3418,9.9609
-2.9297,-8.7891,-5.9082,-6.2012,-4.6875,-5.6152,2.6855,-5.7129,-8.0078,-8.8379,-5.0781,-5.2734,-1.9531,-0.58594,-2.6367,-4.7363,-3.1738,-2.3926,2.6855,2.4902,2.6367,11.425999999999998
-8.7891,-12.012,-10.985999999999999,-8.9355,-9.1797,-7.372999999999999,-3.0273,-7.372999999999999,-11.23,-10.742,-9.4727,-6.6895,-3.4668,-3.8574,-6.6895,-6.1523,-4.4922,-3.2715,-0.58594,0.048827999999999996,0.6835899999999999,7.959
-6.4453,-7.4219,-6.3477,-3.8574,-5.7129,-5.127000000000001,1.7578,-0.19530999999999998,-4.834,-3.8086,-4.834,-1.9043,0.78125,4.1504,-0.39063000000000003,-0.19530999999999998,0.5371100000000001,0.9277299999999999,4.7852,4.1992,3.8086,9.0332
-8.3008,-8.8379,-7.8125,-6.542999999999999,-8.5938,-9.7168,1.1719,-1.6602,-6.9824,-5.5664,-7.7148,-5.3711,-4.541,1.6113,-2.3926,-3.5645,-4.248,-4.8828,0.78125,0.24414,-1.1719,3.418
-7.959,-10.302999999999999,-8.3008,-9.8633,-7.8613,-13.037,1.3184,-4.3945,-6.8359,-8.7402,-7.2266,-9.5703,-7.0801,-1.0742,-2.2461,-6.8359,-4.541,-5.3711,-0.6835899999999999,-1.3184,-4.1016,-0.09765599999999999
-5.3711,-9.4238,-6.6406,-8.9844,-7.3242,-11.23,-1.1719,-5.1758,-5.957000000000001,-8.6426,-5.957000000000001,-8.4961,-4.1992,-2.832,-2.832,-6.9824,-5.5176,-6.1035,-2.4902,-4.1992,-5.4688,-3.125
-9.3262,-12.890999999999998,-10.693,-12.939,-12.061,-15.869000000000002,-7.372999999999999,-10.645,-11.815999999999999,-12.158,-10.985999999999999,-13.037,-10.059,-8.5449,-9.2285,-10.205,-9.5703,-10.937999999999999,-8.3984,-8.0566,-8.6914,-5.2734
-9.375,-9.8145,-11.620999999999999,-9.4727,-11.523,-9.4238,-11.572000000000001,-9.5215,-13.037,-7.8613,-10.302999999999999,-8.9844,-10.254000000000001,-7.7637,-10.498,-5.127000000000001,-7.2266,-10.059,-9.8145,-8.4473,-8.8867,-8.9844
-4.9316,-7.7148,-7.7637,-4.9805,-6.2988,-5.5664,-12.109000000000002,-7.5195,-8.9844,-3.7598,-6.3965,-6.3965,-8.4961,-7.5195,-8.1055,-2.2461,-6.3477,-9.7656,-9.4238,-7.5195,-8.2031,-8.3008
-1.123,-6.542999999999999,-4.834,-1.709,-2.8809,-2.0996,-13.672,-8.6426,-8.6426,-1.8066,-4.8828,-5.3223,-6.4453,-10.302999999999999,-9.1309,-3.2227,-5.2734,-8.5449,-10.449000000000002,-7.4707,-8.9355,-10.352
-2.0996,-7.3242,-7.3242,-2.2949,-4.5898,-2.4414,-14.795,-10.205,-9.9121,-2.3438,-4.9805,-6.2012,-6.9336,-10.302999999999999,-9.3262,-1.5625,-5.3223,-9.1309,-8.3496,-6.4941,-7.959,-8.3496
-1.4648,-8.3984,-6.1523,-5.9082,-4.6875,-9.3262,-11.035,-12.597999999999999,-8.9844,-6.3477,-6.4941,-13.965,-9.0332,-12.305,-8.0078,-4.4922,-7.959,-12.890999999999998,-7.1289,-6.1035,-8.9844,-5.5176
-8.6426,-14.209000000000001,-14.014000000000001,-12.890999999999998,-13.525,-17.529,-15.527000000000001,-20.508000000000003,-18.213,-15.088,-15.869000000000002,-22.51,-19.287,-18.945,-17.188,-13.915999999999999,-16.699,-21.68,-12.597999999999999,-14.110999999999999,-15.869000000000002,-11.865
-13.232000000000001,-16.064,-18.018,-15.137,-15.527000000000001,-17.773,-15.625,-21.68,-19.824,-16.699,-16.748,-21.094,-16.064,-17.627,-16.895,-14.307,-16.797,-19.727,-13.525,-14.16,-15.332,-10.937999999999999
-13.427999999999999,-14.404000000000002,-16.26,-15.137,-14.502,-15.770999999999999,-10.889000000000001,-16.113,-17.09,-12.158,-14.697000000000001,-16.016,-11.035,-12.061,-12.305,-9.1309,-11.133,-13.623,-8.5449,-8.7891,-9.0332,-5.3223
-10.498,-17.578,-15.967,-14.550999999999998,-10.645,-12.597999999999999,-8.9844,-16.797,-14.355,-11.620999999999999,-8.3984,-10.645,-4.8828,-12.012,-8.8379,-8.1543,-8.1543,-9.1309,-8.3496,-8.0566,-8.1543,-7.0801
-6.2012,-13.135,-8.8867,-6.2012,-1.3184,-2.5391,-2.7344,-7.4219,-4.7852,-0.6835899999999999,2.4902,2.9297,4.0039,-0.29297,0.63477,3.3691,4.6875,5.0781,2.8809,3.7598,4.1504,3.4668
-6.2012,-10.449000000000002,-6.6895,-2.2949,0.8789100000000001,2.4414,-3.125,-1.0254,-0.19530999999999998,4.9805,6.7383,9.0332,5.3711,5.7617,6.2012,9.4727,9.9609,9.2773,8.2031,9.1797,9.1309,7.1289
1.5137,-5.6152,0.5371100000000001,3.4668,9.7168,7.666,2.0996,3.5156,7.6172,10.645,14.16,13.77,13.037,9.8145,14.014000000000001,14.258,14.014000000000001,14.209000000000001,12.207,12.450999999999999,13.33,9.9609
4.0039,0.8300799999999999,4.5898,8.4473,12.450999999999999,10.790999999999999,2.3926,7.5195,9.9121,14.453,16.113,15.527000000000001,10.693,13.037,15.869000000000002,17.773,17.969,16.699,16.162,17.725,16.748,12.5
8.3984,6.542999999999999,9.9609,11.67,13.623,12.109000000000002,6.1035,11.279000000000002,13.965,15.332,17.188,16.211,12.890999999999998,15.82,18.652,18.604,17.725,17.334,17.48,18.701,17.041,12.450999999999999
8.3984,9.3262,10.352,11.767999999999999,10.107000000000001,11.035,2.7832,10.937999999999999,10.595999999999998,14.16,11.767999999999999,12.939,7.3242,13.623,12.793,16.455,14.502,13.184000000000001,12.450999999999999,13.525,12.793,4.3945
9.6191,9.668,10.449000000000002,12.109000000000002,9.1309,9.9609,4.1016,12.207,11.133,13.77,11.719000000000001,13.477,6.8359,14.453,13.720999999999998,17.773,15.088,14.355,15.039000000000001,15.234000000000002,14.014000000000001,7.372999999999999
11.572000000000001,10.790999999999999,12.549000000000001,12.890999999999998,11.23,9.9121,7.3242,14.404000000000002,13.427999999999999,15.234000000000002,14.062999999999999,14.014000000000001,8.0078,16.357,17.188,18.652,15.625,13.379000000000001,16.65,16.309,14.062999999999999,8.0078
13.867,12.793,14.355,16.942999999999998,14.209000000000001,13.33,8.4961,16.553,15.186,19.824,16.992,17.432000000000002,11.133,17.92,17.725,22.07,20.166,17.627,18.701,20.361,18.75,12.549000000000001
6.9336,1.416,7.5684,6.9824,7.5684,2.2949,0.24414,4.5898,9.1797,9.6191,11.815999999999999,7.4219,3.5645,7.372999999999999,11.719000000000001,12.207,11.719000000000001,9.9121,11.67,12.061,10.693,6.4941
8.7891,5.6641,8.3008,11.767999999999999,10.01,7.6172,1.8066,8.9844,10.205,14.502,12.207,9.7656,2.2949,11.767999999999999,12.549000000000001,16.992,14.745999999999999,11.620999999999999,16.162,16.016,14.6,14.209000000000001
10.302999999999999,6.4453,10.889000000000001,14.453,12.061,8.1055,1.709,8.5449,12.207,15.575999999999999,14.6,9.4727,4.2969,10.645,13.818,15.869000000000002,14.940999999999999,10.595999999999998,15.039000000000001,15.722999999999999,14.062999999999999,14.014000000000001
12.012,9.668,13.184000000000001,19.482,16.211,14.209000000000001,1.5625,11.67,14.99,21.973000000000003,19.092,16.504,10.449000000000002,13.574000000000002,16.016,20.85,18.506,14.209000000000001,15.527000000000001,17.285,16.406,14.453
15.575999999999999,11.815999999999999,17.529,19.873,19.971,14.844000000000001,8.1543,14.648,19.287,23.682,21.875,15.770999999999999,9.0332,15.137,19.482,21.729,20.215,14.697000000000001,18.115,20.264,18.604,18.604
14.16,8.8379,14.648,17.383,17.529,13.280999999999999,6.9824,10.985999999999999,17.188,20.752,20.264,13.427999999999999,8.5449,11.767999999999999,17.676,19.629,18.018,13.280999999999999,16.309,18.799,18.213,19.336
11.914000000000001,7.1777,11.133,16.553,13.037,13.085999999999999,3.3691,7.6172,10.547,18.213,15.088,14.258,8.3496,9.1797,10.498,16.846,15.674000000000001,12.061,11.23,14.404000000000002,14.648,14.502
2.4902,-1.8066,0.63477,4.2969,2.832,3.125,-2.9785,-2.4902,0.14648,6.6895,6.1035,4.7852,1.0742,-1.1719,1.3672,5.9082,6.6406,4.3457,3.8574,7.1777,8.3984,11.084000000000001
-6.9336,-11.377,-9.9121,-7.9102,-7.7637,-7.1777,-7.6172,-12.793,-9.668,-6.4941,-4.6875,-5.957000000000001,-2.3438,-10.84,-6.8848,-4.4922,-4.1016,-4.1992,-3.7109,-1.0742,2.6855,5.1758
-9.1309,-14.110999999999999,-12.012,-12.645999999999999,-10.889000000000001,-8.4473,-8.7402,-16.65,-14.502,-11.279000000000002,-8.9355,-7.8613,-1.123,-13.720999999999998,-9.9609,-7.7148,-3.9551,-2.7344,-4.2969,-1.0742,1.8066,4.1016
-8.3496,-12.988,-13.525,-10.84,-10.498,-4.834,-8.0078,-14.648,-14.502,-9.5215,-7.9102,-3.8574,3.7109,-7.9102,-8.2031,-4.1992,-3.2715,-0.48828,-0.78125,1.0742,3.9063,6.8359
-5.4199,-11.815999999999999,-11.425999999999998,-9.1309,-6.6406,-2.1484,-2.2949,-12.061,-10.742,-8.6426,-4.7852,-1.0742,8.4961,-2.9785,-3.3203,-1.0254,0.73242,5.0781,5.5176,5.8594,8.7891,13.037
-8.2031,-13.33,-14.940999999999999,-10.790999999999999,-7.8125,-0.8789100000000001,-0.48828,-8.8379,-11.914000000000001,-8.1543,-4.5898,1.6113,7.8125,2.7344,-1.0742,1.8066,4.2969,7.7148,9.7656,9.6191,12.207,17.188
-8.1543,-12.354000000000001,-13.525,-11.133,-5.7617,-0.19530999999999998,4.3457,-3.5645,-7.1289,-6.6895,-1.123,4.7852,12.890999999999998,8.6426,4.3457,4.7852,5.5664,8.6426,13.477,12.939,13.77,18.799
-5.5176,-10.059,-11.865,-11.425999999999998,-2.3926,-0.048827999999999996,7.2754,-0.63477,-4.4434,-6.3965,0.9277299999999999,5.0781,11.425999999999998,9.5703,7.0313,4.9805,8.0078,10.107000000000001,15.380999999999998,15.722999999999999,16.309,21.68
-8.3984,-9.4727,-11.475,-11.767999999999999,-5.1758,-1.9531,6.8359,0.58594,-4.248,-7.1777,1.2207,5.1758,10.742,10.547,6.4453,4.6875,6.8848,10.547,14.16,14.014000000000001,14.745999999999999,19.092
-4.8828,-1.123,-5.0293,-7.1777,-1.3184,2.4414,14.648,8.2031,2.5879,-2.7832,5.0781,8.8867,12.549000000000001,14.940999999999999,10.889000000000001,8.8379,10.985999999999999,13.720999999999998,16.504,15.43,15.82,18.994
-4.1992,4.6387,-2.9297,-3.4668,-0.8300799999999999,6.25,14.16,12.597999999999999,3.418,1.8555,4.0039,10.937999999999999,11.328,17.92,9.375,9.4238,9.8633,13.085999999999999,14.6,12.109000000000002,12.305,13.33
-1.6602,7.2754,-0.63477,-0.63477,1.3672,9.5703,13.085999999999999,13.33,4.3457,3.9063,6.0059,14.745999999999999,13.135,17.383,9.3262,9.082,9.8145,13.720999999999998,11.914000000000001,9.5703,11.328,9.5703
4.7363,11.815999999999999,6.542999999999999,4.4922,8.9355,14.110999999999999,18.408,16.748,10.889000000000001,8.1543,13.037,18.701,19.043,19.238,14.209000000000001,11.719000000000001,15.332,19.189,15.722999999999999,13.720999999999998,15.479000000000001,12.744000000000002
5.3711,15.039000000000001,8.8867,10.205,8.6426,14.648,17.822,19.971,11.963,12.744000000000002,13.33,19.873,15.332,23.096,14.697000000000001,15.039000000000001,15.332,18.457,17.432000000000002,15.283,17.09,16.357
11.815999999999999,20.264,16.65,15.625,15.186,17.041,18.799,21.826,19.141,18.652,19.092,21.581999999999997,17.627,23.584,19.775,19.629,20.459,22.851999999999997,20.508000000000003,19.775,22.559,20.752
14.648,26.123,21.631,21.776999999999997,17.773,19.336,20.654,27.344,23.438000000000002,24.951,22.217,24.268,17.822,27.588,23.682,25.342,23.975,23.877,24.072,22.217,23.779,21.533
18.213,32.373000000000005,28.223000000000003,27.881,20.996,19.531,21.484,30.566,28.026999999999997,29.688000000000002,22.656,21.68,14.940999999999999,27.1,24.756,24.658,19.482,16.553,18.359,15.82,15.918,9.7168
24.561,37.012,34.57,34.912,27.002,25.049,20.703000000000003,32.813,31.348000000000003,34.57,26.953000000000003,24.463,16.942999999999998,24.023000000000003,24.219,25.293000000000003,22.217,18.213,17.285,14.844000000000001,14.844000000000001,5.9082
29.346,35.107,37.939,35.449,30.956999999999997,25.342,22.168000000000003,29.688000000000002,32.91,34.082,29.296999999999997,21.875,15.283,20.996,24.365,23.438000000000002,20.703000000000003,15.918,14.110999999999999,11.67,11.572000000000001,0.97656
34.424,36.571999999999996,40.723,39.014,34.766,28.564,23.779,29.932,35.01,35.303000000000004,31.445,22.266,16.992,21.533,24.414,22.754,20.996,15.967,11.719000000000001,10.352,9.5703,-2.0508
32.422,34.375,39.014,39.209,34.424,29.296999999999997,21.776999999999997,28.125,32.422,36.084,30.859,24.219,20.067999999999998,20.215,23.438000000000002,24.365,22.461,17.871,14.16,13.232000000000001,13.379000000000001,4.3945
22.656,24.316,28.76,30.42,25.635,19.434,16.162,19.141,24.706999999999997,29.053,23.193,15.918,10.645,13.965,18.213,18.555,15.283,10.302999999999999,8.9355,8.8379,8.8379,0.9277299999999999
20.801,21.484,26.807,25.781,23.926,17.236,19.043,16.797,22.998,25.879,20.85,12.109000000000002,11.377,13.574000000000002,18.994,16.846,15.527000000000001,10.693,13.33,12.207,12.207,6.0547
9.668,10.4,14.795,14.745999999999999,12.255999999999998,7.1289,11.133,6.542999999999999,12.402000000000001,14.258,11.035,2.8809,4.3457,7.5684,10.790999999999999,9.7168,6.6406,2.6367,9.9121,7.8125,6.6406,4.3457
7.7637,11.23,12.597999999999999,14.648,10.302999999999999,8.3496,13.037,9.375,11.279000000000002,15.674000000000001,10.595999999999998,5.7617,5.7129,11.425999999999998,12.597999999999999,14.745999999999999,10.985999999999999,6.8848,15.332,12.890999999999998,11.67,11.475
3.4668,6.3477,7.5195,9.7168,5.8105,5.8594,8.6914,5.2246,6.0059,9.668,6.2988,3.5156,2.9297,8.3008,8.6426,10.742,8.1055,4.7363,12.305,10.302999999999999,7.4707,7.959
3.5645,1.9531,6.6895,5.8105,6.1523,3.3203,8.2031,2.9785,6.0059,6.9824,8.0566,4.2969,5.5664,8.4961,10.693,9.4238,8.8379,6.4453,14.355,12.5,9.5703,12.939
-1.3184,-2.5879,0.8789100000000001,1.2207,0.8789100000000001,-0.8300799999999999,4.3457,0.78125,2.7832,3.7598,4.1016,3.0762,3.125,6.25,8.2031,6.8359,8.5449,6.9336,13.77,12.354000000000001,10.205,13.965
-7.6172,-6.6406,-5.9082,-2.1484,-6.2012,-5.6641,-0.6835899999999999,-2.5391,-3.5156,-0.048827999999999996,-1.709,0.19530999999999998,-1.123,5.2246,2.9785,4.6875,2.3438,2.9785,9.8145,8.3496,6.8848,9.7168
-5.9082,-5.8594,-5.4688,-0.63477,-5.2734,-4.5898,0.048827999999999996,-2.3438,-4.1504,0.6835899999999999,-1.7578,1.709,-1.2207,6.0059,1.8555,5.0293,3.3203,4.4922,9.668,9.3262,8.3496,11.328
-4.7852,-7.6172,-4.2969,-2.2949,-2.4414,-4.0527,2.002,-4.1016,-2.7832,-0.58594,1.416,2.9297,2.832,4.9316,3.6133,3.6133,5.5176,7.372999999999999,11.035,10.059,10.790999999999999,12.939
-3.9063,-5.127000000000001,-4.6387,-0.14648,-2.9297,-0.97656,3.5156,-1.3184,-3.3691,-0.6835899999999999,0.29297,5.2246,6.3965,7.4219,3.2227,3.7598,3.8574,6.2012,9.4238,8.3984,9.4238,10.547
0.9277299999999999,-2.1973,-1.3672,0.97656,1.5137,0.97656,7.0801,0.48828,-1.0742,-1.3184,1.9043,4.1016,6.7383,5.9082,3.3691,1.7578,4.4922,6.0547,8.8867,8.6426,8.9844,9.6191
-0.48828,-2.0996,-2.832,1.416,0.3418,3.3203,5.8105,1.6602,-2.5879,-0.6835899999999999,0.5371100000000001,6.5918,4.4434,8.5938,2.4414,3.5156,2.9297,4.1504,7.9102,6.2012,5.9082,8.4473
-4.3945,-4.9805,-6.4453,-1.1719,-3.125,0.24414,2.832,-0.97656,-5.2734,-5.0293,-2.5879,3.0762,1.4648,4.1504,-1.7578,-1.0254,-1.0254,0.39063000000000003,2.5391,0.24414,0.14648,2.4414
-6.6895,-8.4961,-9.4727,-5.1758,-5.127000000000001,-1.2695,-1.2207,-4.6387,-9.6191,-7.959,-5.4688,-0.048827999999999996,-1.1719,-0.19530999999999998,-6.6406,-6.25,-6.1523,-4.3457,-1.6113,-4.6875,-5.3223,-2.2949
-7.1777,-11.23,-9.668,-7.1777,-4.6875,-3.7109,-2.9297,-6.9824,-9.082,-8.8867,-4.541,-1.8066,-1.3672,-1.709,-5.957000000000001,-8.3496,-7.0313,-6.2012,-3.125,-6.542999999999999,-8.1543,-3.6621
-8.3496,-11.377,-10.4,-7.8613,-5.2734,-3.7109,-5.3711,-8.9355,-11.719000000000001,-10.254000000000001,-7.0801,-4.541,-4.541,-7.1777,-10.205,-11.719000000000001,-10.84,-10.107000000000001,-9.0332,-11.865,-13.33,-11.084000000000001
-6.0059,-8.3008,-10.107000000000001,-5.1758,-5.4688,-2.2461,-6.8359,-8.4473,-12.597999999999999,-9.082,-7.8613,-3.418,-6.2988,-7.0801,-11.865,-10.4,-11.914000000000001,-11.523,-10.84,-13.915999999999999,-14.307,-13.867
-2.5879,-7.1289,-6.8848,-3.3203,-3.8574,-3.0273,-5.127000000000001,-8.7891,-10.498,-8.9844,-7.7637,-5.7129,-4.3457,-8.0078,-11.377,-9.9121,-12.549000000000001,-12.890999999999998,-11.084000000000001,-14.355,-15.918,-15.186
-8.0078,-12.645999999999999,-13.184000000000001,-8.1055,-10.302999999999999,-7.7637,-10.937999999999999,-13.720999999999998,-16.602,-13.379000000000001,-13.574000000000002,-10.498,-9.7656,-12.890999999999998,-16.748,-14.062999999999999,-16.942999999999998,-17.236,-16.406,-17.871,-18.506,-17.773
-6.5918,-9.8633,-11.719000000000001,-4.4922,-9.375,-8.9355,-6.6895,-8.9844,-12.255999999999998,-9.0332,-11.133,-8.7402,-10.059,-9.7656,-10.84,-8.7891,-12.793,-13.427999999999999,-10.498,-11.475,-11.377,-9.5215
-5.8105,-11.914000000000001,-9.3262,-5.4199,-6.1523,-9.2773,-3.6621,-8.7402,-8.5449,-7.4707,-6.3965,-7.6172,-5.6641,-8.1055,-5.3711,-4.2969,-4.1992,-4.9316,-2.0996,-0.29297,0.0,4.1504
-11.475,-14.502,-13.379000000000001,-10.790999999999999,-10.937999999999999,-12.158,-4.1992,-11.620999999999999,-10.742,-11.23,-7.6172,-8.6914,-2.2949,-7.0313,-4.3945,-3.6133,-3.5645,-2.7832,0.6835899999999999,3.4668,3.8086,8.4961
-14.062999999999999,-11.279000000000002,-14.892999999999999,-11.035,-13.915999999999999,-11.475,-2.9785,-7.959,-11.719000000000001,-10.742,-10.595999999999998,-6.9336,-1.1719,-2.8809,-4.6875,-2.1973,-0.8789100000000001,0.97656,5.0781,7.5684,9.8633,15.479000000000001
-20.264,-13.818,-21.143,-18.652,-21.581999999999997,-16.992,-6.1523,-11.182,-18.066,-16.504,-17.432000000000002,-11.133,-7.8125,-4.4922,-9.4727,-5.7617,-4.4922,-2.1973,2.9297,3.6621,5.4199,10.889000000000001
-24.706999999999997,-18.115,-25.244,-23.877,-26.366999999999997,-21.729,-9.9609,-15.967,-22.314,-22.07,-22.168000000000003,-15.869000000000002,-11.865,-8.8867,-12.842,-10.352,-10.302999999999999,-6.7383,-1.9043,-0.73242,0.78125,7.2754
-16.064,-13.720999999999998,-17.627,-19.189,-18.164,-18.262,-3.9063,-11.963,-16.455,-17.725,-16.406,-13.525,-7.7148,-4.248,-7.2266,-8.0078,-6.4453,-4.541,3.0273,2.7832,2.4902,9.7656
-22.07,-20.459,-24.854,-24.414,-25.439,-23.828000000000003,-9.1797,-16.748,-23.34,-23.584,-22.656,-18.457,-13.232000000000001,-7.959,-13.33,-12.207,-13.623,-11.475,-2.9785,-3.9551,-3.8574,4.8828
-17.334,-17.871,-19.092,-21.094,-20.898000000000003,-22.803,-3.4668,-15.137,-18.359,-21.386999999999997,-19.336,-19.482,-11.279000000000002,-7.8613,-10.059,-12.207,-12.354000000000001,-12.207,-1.9043,-3.2227,-4.0527,4.5898
-14.355,-12.061,-16.211,-14.502,-18.262,-16.699,-2.9785,-8.6914,-16.309,-16.211,-18.701,-14.745999999999999,-10.985999999999999,-1.709,-9.4727,-8.1543,-10.645,-10.985999999999999,1.1719,-1.9043,-2.7832,5.957000000000001
-21.386999999999997,-17.725,-22.363000000000003,-22.266,-23.828000000000003,-22.559,-4.9316,-12.450999999999999,-20.41,-21.973000000000003,-23.096,-19.58,-14.940999999999999,-5.9082,-12.988,-14.940999999999999,-16.846,-16.65,-6.4941,-9.7168,-9.6191,-4.7363
-13.574000000000002,-11.572000000000001,-14.014000000000001,-17.529,-15.527000000000001,-15.82,1.7578,-7.5195,-13.574000000000002,-17.285,-16.113,-13.623,-3.0762,-4.248,-7.8613,-13.037,-11.035,-9.5215,-5.5176,-8.3496,-7.8125,-7.8125
-12.255999999999998,-7.6172,-12.939,-14.453,-17.48,-15.527000000000001,0.8300799999999999,-4.9316,-12.695,-15.332,-17.432000000000002,-13.427999999999999,-8.3496,-1.2207,-8.7402,-11.815999999999999,-12.842,-11.523,-7.1289,-10.985999999999999,-10.4,-11.572000000000001
-7.5195,-2.4902,-6.0547,-8.6914,-12.012,-11.815999999999999,6.7383,2.0996,-5.2734,-9.1309,-10.84,-7.1289,-6.0059,5.3223,-2.002,-4.9316,-5.7129,-4.0039,0.29297,-3.9063,-3.0273,-4.3457
-7.959,-4.541,-6.6895,-11.475,-11.67,-13.33,5.957000000000001,-0.43945,-5.4199,-10.352,-9.7168,-6.6406,-3.7109,4.1992,-1.5625,-6.8359,-4.9805,-2.3438,0.9277299999999999,-3.2227,-2.6855,-3.7109
-12.549000000000001,-8.8867,-11.279000000000002,-14.062999999999999,-16.064,-17.285,-0.048827999999999996,-5.7617,-10.205,-13.818,-13.037,-9.0332,-5.1758,-1.7578,-6.2988,-10.059,-9.2285,-6.2988,-3.8574,-6.542999999999999,-5.3711,-5.5664
-15.283,-12.354000000000001,-12.793,-17.578,-16.406,-19.287,-1.2695,-8.7891,-11.035,-14.99,-12.988,-11.23,-7.5684,-3.125,-5.3223,-9.8633,-8.252,-6.0059,-0.3418,-3.4668,-3.3691,-0.63477
-16.455,-14.795,-14.16,-16.748,-14.697000000000001,-16.455,-4.0039,-10.595999999999998,-11.133,-13.33,-10.254000000000001,-8.0566,-2.9785,-2.6367,-4.541,-7.3242,-6.9824,-4.6387,1.0742,-0.8300799999999999,-1.8555,3.418
-19.873,-17.236,-17.92,-17.139,-17.822,-16.455,-9.1797,-14.014000000000001,-15.380999999999998,-14.745999999999999,-14.014000000000001,-11.279000000000002,-8.4473,-5.5664,-9.8633,-9.1309,-9.8633,-9.1797,-2.002,-4.1504,-5.957000000000001,-0.48828
-17.529,-13.77,-13.77,-13.037,-13.477,-11.914000000000001,-7.2754,-9.7168,-10.742,-9.2773,-9.082,-6.8848,-7.3242,-2.2461,-4.8828,-4.248,-4.834,-5.5664,1.9043,-0.14648,-2.0996,2.4902
-4.4922,-1.5625,1.4648,-0.8789100000000001,-0.63477,-3.9551,3.5645,0.97656,3.3691,2.4414,2.9785,0.24414,-0.24414,5.957000000000001,6.4453,4.2969,3.0273,0.73242,9.2773,6.8359,4.541,9.082
-5.4688,1.123,2.2461,1.2207,-2.9785,-7.666,0.8300799999999999,-0.29297,1.2207,2.1484,-0.3418,-3.5645,-8.4961,2.7344,2.2461,1.7578,0.3418,-2.5879,5.0781,4.541,1.5625,6.6406
-7.1777,3.5156,1.3672,1.1719,-6.1523,-8.0566,1.8066,3.3691,2.5391,5.3223,0.19530999999999998,-1.6602,-9.5703,6.8848,4.248,6.1035,2.3438,-0.29297,9.2773,8.1055,5.4688,12.793
-7.8613,5.6152,3.125,2.2461,-5.957000000000001,-7.959,5.0293,5.6641,3.8086,5.957000000000001,0.97656,-2.002,-8.1543,8.1543,5.127000000000001,7.1777,3.5156,-0.39063000000000003,9.0332,8.4473,6.0059,10.547
-3.9063,6.4941,5.3223,5.6641,-1.709,-3.2227,6.3477,7.959,6.2988,10.547,3.9551,1.8066,-4.5898,11.815999999999999,8.6914,11.572000000000001,8.4473,4.1016,14.940999999999999,12.988,10.254000000000001,15.380999999999998
-3.2715,4.9316,3.9551,7.8125,0.58594,0.78125,5.2246,7.372999999999999,6.542999999999999,11.865,5.6641,3.6621,-1.9531,12.450999999999999,9.5215,12.549000000000001,8.1543,3.0273,12.695,10.937999999999999,8.1543,9.082
7.666,10.595999999999998,12.890999999999998,17.285,14.062999999999999,13.867,9.7656,13.037,14.940999999999999,20.508000000000003,16.211,13.915999999999999,8.2031,17.432000000000002,16.553,19.043,17.236,12.402000000000001,17.92,17.627,13.818,12.061
8.6914,7.7148,11.719000000000001,17.236,14.110999999999999,13.33,6.0547,8.252,12.597999999999999,17.969,15.674000000000001,13.477,8.6426,14.795,14.502,15.869000000000002,14.453,10.449000000000002,14.110999999999999,13.33,10.352,7.1777
10.059,7.372999999999999,13.574000000000002,18.457,15.770999999999999,13.135,6.3477,8.8867,15.039000000000001,18.408,16.699,14.404000000000002,10.059,15.039000000000001,16.162,18.945,17.822,14.453,15.967,16.406,14.844000000000001,12.012
8.0078,5.6641,11.523,17.578,14.014000000000001,13.672,3.8086,8.2031,12.645999999999999,18.945,16.455,17.383,12.597999999999999,14.795,14.99,18.848,17.725,16.113,16.406,16.455,14.745999999999999,13.477
1.0742,-0.43945,5.4199,8.9355,6.4453,3.9551,0.48828,1.4648,6.3477,9.668,9.1309,8.4961,3.2227,7.5195,8.6914,10.01,8.8379,6.7383,7.8613,7.7637,7.1289,5.7129
3.7598,1.3672,8.1543,8.8867,10.254000000000001,6.3965,6.3965,6.6895,10.254000000000001,12.450999999999999,13.672,12.061,7.4219,11.425999999999998,14.355,13.184000000000001,14.844000000000001,13.623,14.110999999999999,13.965,13.720999999999998,11.767999999999999
1.0742,0.048827999999999996,4.7363,6.4941,6.8848,5.7617,6.7383,5.2246,6.9824,8.0078,10.156,10.302999999999999,5.4688,9.2285,10.645,9.9121,9.7656,11.328,9.375,9.668,9.375,6.0547
4.0527,1.0742,5.8105,6.4941,7.6172,6.4453,7.5684,4.5898,5.6152,5.8594,9.4238,9.4727,7.1777,8.6914,8.9844,8.1543,10.205,12.158,8.3496,9.668,10.595999999999998,7.0801
0.3418,-0.8789100000000001,0.19530999999999998,1.6113,2.2461,2.9297,6.9824,4.248,1.4648,1.1719,3.2227,6.1035,3.7109,8.0078,6.0059,5.9082,6.3965,9.1797,6.1035,6.7383,8.5449,5.3223
-4.1016,-1.416,-3.2715,-0.63477,-2.7344,-1.123,5.7617,3.5645,-1.2695,-0.8300799999999999,-1.0254,3.6621,0.78125,5.957000000000001,2.832,2.832,2.6855,5.3711,3.418,4.7852,7.0313,6.8848
-7.959,-9.9609,-7.7637,-8.9355,-7.0801,-7.666,-1.416,-7.2754,-8.1055,-10.645,-6.3965,-2.3438,2.832,-5.2734,-5.4199,-7.666,-3.1738,1.1719,-3.418,-1.3184,2.7344,4.2969
-8.1543,-13.085999999999999,-10.01,-11.815999999999999,-10.107000000000001,-11.133,-2.2461,-10.254000000000001,-10.449000000000002,-14.014000000000001,-8.7891,-5.3223,2.4902,-7.9102,-8.1055,-10.059,-6.3477,-1.8555,-5.6152,-3.3691,-0.19530999999999998,3.9063
-7.3242,-6.0059,-7.372999999999999,-5.3223,-7.959,-6.2012,-2.6367,-4.4922,-8.252,-7.1289,-7.4219,-2.1484,-2.0508,-3.2715,-7.4707,-4.7363,-4.1016,-0.24414,-2.6855,-0.97656,1.416,7.5195
-7.2266,-5.8594,-7.1289,-6.7383,-8.8379,-6.5918,-5.9082,-7.7148,-10.790999999999999,-10.107000000000001,-9.8145,-6.1035,-4.9805,-10.645,-12.158,-11.865,-9.2773,-6.7383,-10.449000000000002,-10.107000000000001,-8.8867,-3.9551
-0.5371100000000001,2.5391,0.39063000000000003,2.5391,-1.123,-0.09765599999999999,0.9277299999999999,0.8789100000000001,-1.9531,-0.63477,-2.7344,0.97656,-1.5137,-2.4902,-3.3691,-2.002,-3.5156,-2.7344,-2.6367,-3.0273,-3.125,1.3672
4.4922,8.7402,5.2734,7.0801,3.7109,3.2227,1.5625,5.4199,2.3926,4.248,1.123,3.0762,0.6835899999999999,1.0254,0.09765599999999999,2.5391,0.8300799999999999,-1.4648,-0.5371100000000001,-0.63477,-2.7344,-0.8300799999999999
4.9805,7.666,5.2734,5.4199,1.8555,-1.123,-0.24414,1.416,1.5625,0.63477,-1.3184,-3.3203,-8.252,-1.709,-2.5879,-2.1484,-5.8105,-7.4707,-4.1504,-5.7617,-7.5684,-5.8594
5.0293,8.1055,4.7852,6.8359,1.7578,1.3184,-0.3418,2.002,-0.048827999999999996,1.5137,-2.0996,-0.5371100000000001,-6.8359,-0.24414,-4.0527,-0.8789100000000001,-3.2715,-4.4922,-2.7832,-4.248,-5.7129,-4.4922
-1.0254,-2.4902,-2.0996,-3.8086,-3.5645,-6.1035,-4.6875,-5.1758,-4.1016,-5.8105,-5.6152,-7.9102,-9.082,-4.4434,-4.6875,-6.0059,-6.25,-7.4219,-3.418,-5.0781,-6.2012,-4.3945
0.0,1.709,-1.1719,1.3184,-0.97656,-0.24414,-1.2695,-0.39063000000000003,-1.4648,-1.709,-3.3203,-2.7344,-5.3711,-0.3418,-2.3926,-1.5625,-3.6133,-4.9316,-1.3184,-2.4902,-2.3438,-1.8555
-0.58594,-1.9531,-0.14648,-2.7832,-0.19530999999999998,-2.9785,-0.78125,-3.3203,-0.58594,-4.1504,-1.1719,-4.6387,-3.6133,-3.6133,-0.29297,-4.4434,-1.5137,-3.1738,-0.29297,-0.8789100000000001,-0.39063000000000003,-0.8300799999999999
-1.5625,2.0508,-0.73242,1.2207,-1.8555,0.63477,-0.78125,1.8555,0.14648,0.8300799999999999,-0.14648,0.58594,-3.6133,1.4648,0.29297,1.6602,0.63477,-0.8789100000000001,2.3926,1.416,1.709,2.1484
-0.63477,-0.24414,-0.73242,-0.73242,-2.1484,-1.2207,-3.5645,-3.5156,-2.7344,-2.6367,-3.3203,-2.5391,-4.3457,-4.7852,-4.2969,-3.8574,-3.125,-4.5898,-4.7363,-5.9082,-4.834,-6.5918
2.3926,4.4434,2.0508,2.832,0.0,2.3438,-1.6602,0.09765599999999999,-1.5137,0.9277299999999999,-0.48828,2.7832,0.63477,-0.58594,-1.6113,-0.19530999999999998,-0.6835899999999999,-1.1719,-1.0742,-2.3926,-1.2695,-3.4668
-3.6133,-1.3672,-3.8574,-2.2949,-6.25,-4.3945,-7.2266,-5.4199,-6.3477,-3.4668,-6.5918,-2.9297,-4.834,-4.541,-6.4941,-5.4199,-8.0078,-8.6914,-6.25,-8.252,-7.959,-8.7891
-0.29297,-4.8828,-2.832,-5.2246,-2.2949,-5.6152,-4.834,-8.0566,-6.1523,-8.0078,-5.7617,-7.959,-5.6641,-7.7637,-5.127000000000001,-10.254000000000001,-7.8613,-9.668,-5.8105,-8.1055,-7.7148,-6.4453
-6.8359,-10.302999999999999,-11.719000000000001,-8.6426,-9.8145,-7.4219,-11.035,-11.377,-12.842,-12.158,-12.255999999999998,-10.595999999999998,-11.23,-9.5703,-10.937999999999999,-11.182,-12.158,-13.037,-8.9355,-11.084000000000001,-9.9609,-8.8867
-5.6152,-10.645,-9.1309,-9.3262,-7.372999999999999,-7.8125,-5.4688,-9.4727,-10.01,-13.232000000000001,-9.4727,-10.937999999999999,-7.372999999999999,-7.2754,-7.6172,-10.059,-8.9844,-9.3262,-5.2246,-7.959,-5.7129,-4.834
0.09765599999999999,-0.58594,-4.1016,-0.73242,-2.0508,3.125,0.39063000000000003,0.14648,-5.7617,-4.7852,-3.6621,0.9277299999999999,-0.14648,2.3438,-3.0273,-0.9277299999999999,-0.5371100000000001,1.3184,1.6113,0.48828,3.2227,3.6621
-1.9531,-4.6387,-5.5664,-6.0547,-2.3926,-1.2207,1.3184,-2.9785,-5.4688,-8.3984,-1.6113,2.002,5.7617,-1.7578,-1.7578,-2.9785,0.0,4.2969,-1.2695,-0.9277299999999999,3.9063,1.416
-5.7617,-4.7363,-6.2988,-7.5684,-4.1504,-2.1484,2.7344,-0.97656,-4.541,-6.0059,-1.4648,3.7598,6.542999999999999,0.19530999999999998,-0.8300799999999999,-1.3184,3.8574,9.082,2.7832,2.2949,6.8848,5.3711
-6.9824,-4.9805,-7.0313,-8.0566,-5.9082,-4.0039,3.6621,-0.48828,-4.834,-5.8594,-1.8555,3.418,5.8105,3.6621,0.73242,0.73242,3.7109,8.5938,5.5664,3.9063,7.6172,7.1289
-4.7852,-1.3672,-5.0781,-4.0039,-5.2734,-2.4902,5.9082,3.6133,-2.002,-1.8066,-1.2207,4.4922,1.5625,8.3008,3.125,5.3223,6.0059,9.082,10.059,7.3242,9.4727,10.790999999999999
-2.832,0.48828,-3.8574,-0.6835899999999999,-1.8066,2.4902,5.3711,5.7617,-0.048827999999999996,2.0508,1.416,6.542999999999999,2.5879,11.475,5.7129,7.5195,8.1055,9.8145,12.744000000000002,9.9609,10.107000000000001,13.280999999999999
-0.58594,-2.0508,-1.709,0.048827999999999996,0.78125,0.48828,4.5898,3.0762,1.0742,1.6113,2.6855,2.6855,-0.73242,9.2773,7.4219,5.5664,4.3945,4.9805,11.377,7.2754,6.3477,9.4727
6.6406,7.6172,3.4668,8.8867,6.2012,9.1797,7.5684,9.5703,4.4922,6.8848,4.9805,5.8594,-1.2207,13.184000000000001,8.5938,8.9355,6.9824,6.0059,14.062999999999999,9.1797,8.3008,10.4
9.4238,9.5703,6.9824,8.8867,7.666,7.5684,8.9355,8.9355,6.6406,5.957000000000001,6.0547,3.7109,-0.3418,10.693,9.1309,8.252,5.0293,3.125,11.035,6.4941,4.7363,6.4941
6.0547,5.0781,4.9316,4.1016,2.9785,0.24414,6.7871,4.7363,3.7598,0.9277299999999999,1.3184,-2.9297,-5.2246,5.2246,5.3223,2.5391,1.0254,-1.123,7.7637,4.0527,2.6367,5.3711
2.8809,2.4902,2.2461,0.5371100000000001,-0.19530999999999998,-3.8574,4.6387,1.3184,0.6835899999999999,-3.0273,-1.5625,-5.0781,-6.4941,2.002,2.0508,0.6835899999999999,-0.19530999999999998,-1.5137,5.5176,2.3926,1.3184,5.6641
0.9277299999999999,-0.29297,-0.63477,-2.2461,-2.2949,-4.2969,5.0293,-0.048827999999999996,-0.3418,-4.1016,-2.3438,-4.0039,-2.2949,0.19530999999999998,1.416,-1.0742,-0.9277299999999999,-1.2207,3.8086,2.3926,3.2227,6.7871
-5.7617,-7.0313,-7.0801,-8.7891,-8.0566,-10.107000000000001,0.8789100000000001,-6.1035,-6.7383,-9.5215,-7.5195,-7.8125,-3.8086,-5.5664,-4.1992,-6.8848,-4.1504,-3.0762,-0.3418,-0.78125,0.14648,4.4922
-11.523,-14.502,-14.550999999999998,-14.502,-12.549000000000001,-11.328,-2.9297,-12.939,-12.695,-14.550999999999998,-10.547,-8.1055,-0.78125,-8.3008,-9.2773,-10.84,-7.1777,-4.0039,-4.9316,-6.0547,-3.7598,0.19530999999999998
-15.625,-16.846,-20.067999999999998,-15.332,-16.992,-13.915999999999999,-7.5195,-15.918,-18.994,-16.504,-15.918,-10.985999999999999,-8.6914,-11.67,-16.895,-13.867,-11.425999999999998,-9.0332,-10.498,-11.377,-7.5684,-4.1504
-10.937999999999999,-14.940999999999999,-16.504,-10.059,-11.425999999999998,-8.7402,-6.5918,-14.550999999999998,-16.504,-12.695,-12.012,-7.8125,-4.2969,-10.547,-15.283,-12.5,-9.9121,-7.4219,-10.790999999999999,-11.719000000000001,-7.5684,-4.9805
-11.963,-16.846,-18.213,-12.890999999999998,-13.720999999999998,-13.33,-9.2285,-16.504,-18.701,-16.504,-15.674000000000001,-13.33,-11.133,-13.672,-17.822,-17.871,-16.406,-14.404000000000002,-17.09,-18.457,-14.110999999999999,-11.620999999999999
-5.8105,-8.0566,-10.645,-4.4434,-7.8613,-6.3477,-1.8066,-6.9824,-11.279000000000002,-7.8125,-9.1797,-6.6895,-6.5918,-5.6641,-10.595999999999998,-9.1797,-7.0801,-6.6895,-7.9102,-8.5449,-5.127000000000001,-1.2207
-9.1797,-12.158,-14.453,-9.082,-12.645999999999999,-10.352,-6.6406,-13.135,-15.43,-14.110999999999999,-14.209000000000001,-11.767999999999999,-10.547,-12.450999999999999,-15.674000000000001,-16.504,-15.380999999999998,-13.77,-16.455,-17.432000000000002,-14.453,-13.867
-8.9355,-15.479000000000001,-14.16,-12.109000000000002,-12.645999999999999,-12.939,-7.5195,-16.26,-15.918,-18.506,-14.940999999999999,-15.380999999999998,-11.523,-15.770999999999999,-16.357,-19.482,-17.578,-17.188,-18.848,-20.557,-18.164,-18.848
-11.279000000000002,-13.965,-15.234000000000002,-11.475,-14.502,-10.985999999999999,-8.7402,-14.209000000000001,-16.602,-16.602,-15.43,-13.379000000000001,-11.475,-12.988,-15.770999999999999,-16.895,-16.064,-15.674000000000001,-15.088,-17.822,-16.504,-15.722999999999999
-12.402000000000001,-14.453,-16.699,-12.597999999999999,-15.967,-11.475,-9.7168,-13.623,-17.773,-16.602,-17.334,-12.402000000000001,-9.668,-12.744000000000002,-17.188,-16.797,-18.896,-17.139,-16.65,-19.678,-19.727,-19.141
-12.207,-13.720999999999998,-15.283,-12.890999999999998,-13.915999999999999,-13.184000000000001,-8.0566,-12.158,-16.602,-16.113,-14.892999999999999,-11.328,-6.7871,-11.279000000000002,-14.6,-15.625,-13.867,-11.67,-11.572000000000001,-14.745999999999999,-14.502,-13.135
-12.939,-18.115,-16.553,-17.383,-15.967,-18.604,-8.252,-16.357,-17.871,-21.533,-16.064,-15.625,-7.1289,-14.014000000000001,-14.697000000000001,-19.385,-18.066,-14.6,-13.379000000000001,-16.65,-15.380999999999998,-13.672
-7.5684,-13.77,-11.475,-11.620999999999999,-11.620999999999999,-13.818,-3.418,-10.889000000000001,-12.793,-15.770999999999999,-12.207,-11.865,-3.1738,-7.372999999999999,-10.107000000000001,-13.574000000000002,-12.061,-8.7402,-6.8359,-10.352,-8.6426,-5.5176
-10.645,-15.234000000000002,-13.965,-14.745999999999999,-14.16,-16.309,-6.4453,-12.402000000000001,-14.453,-18.115,-14.745999999999999,-14.062999999999999,-7.2754,-8.4961,-11.67,-15.43,-13.525,-10.4,-7.4707,-11.23,-9.1309,-7.4707
-15.088,-15.722999999999999,-17.48,-14.648,-18.213,-16.748,-9.1309,-12.549000000000001,-17.822,-17.822,-18.652,-14.940999999999999,-11.620999999999999,-8.9355,-15.332,-16.65,-17.188,-14.014000000000001,-11.035,-14.940999999999999,-12.255999999999998,-10.645
-7.7637,-12.5,-11.914000000000001,-12.255999999999998,-10.937999999999999,-13.037,-7.3242,-12.793,-14.014000000000001,-15.82,-13.33,-13.427999999999999,-6.1035,-9.9609,-12.597999999999999,-16.309,-12.255999999999998,-8.6426,-6.9336,-10.01,-8.4961,-4.541
-7.7637,-12.012,-12.158,-11.914000000000001,-12.255999999999998,-12.305,-8.3984,-13.623,-15.625,-16.309,-14.6,-12.988,-6.9336,-11.084000000000001,-15.186,-16.992,-14.6,-10.498,-9.8145,-13.379000000000001,-11.035,-7.6172
-5.3223,-8.6426,-9.8633,-9.6191,-10.01,-10.498,-6.7871,-12.402000000000001,-14.209000000000001,-14.648,-12.402000000000001,-10.059,-0.48828,-11.523,-16.064,-15.625,-13.574000000000002,-8.4473,-11.963,-14.062999999999999,-10.84,-7.959
-6.0059,-10.302999999999999,-12.354000000000001,-11.67,-13.427999999999999,-12.402000000000001,-10.985999999999999,-15.82,-18.359,-18.066,-17.188,-12.793,-3.3691,-17.627,-20.947,-20.996,-18.066,-12.255999999999998,-17.383,-20.067999999999998,-15.380999999999998,-14.209000000000001
-1.2695,-5.0781,-7.5684,-5.2246,-9.375,-6.3965,-8.3008,-11.035,-14.258,-13.085999999999999,-13.720999999999998,-7.0801,1.9531,-13.379000000000001,-17.969,-16.455,-15.088,-9.4238,-15.918,-17.773,-12.5,-14.355
-5.7129,-10.254000000000001,-10.889000000000001,-9.5703,-12.890999999999998,-10.645,-10.693,-14.99,-18.066,-17.627,-17.773,-12.939,-4.834,-17.383,-20.654,-20.996,-17.432000000000002,-12.744000000000002,-18.555,-18.799,-15.283,-17.676
-2.1484,-10.352,-8.3496,-8.6914,-9.668,-9.2773,-7.4219,-13.574000000000002,-13.085999999999999,-15.527000000000001,-13.379000000000001,-11.865,-2.3926,-12.305,-14.014000000000001,-16.748,-14.307,-9.4727,-12.255999999999998,-13.33,-10.4,-10.742
1.3184,-6.2012,-3.9551,-5.4688,-4.6875,-3.9551,-1.7578,-8.1055,-7.2754,-10.742,-7.3242,-5.4688,2.4414,-4.8828,-6.7871,-8.252,-5.0293,-0.73242,-2.4414,-3.8574,-1.6602,-1.5137
-0.58594,-6.1035,-5.127000000000001,-6.9336,-4.3945,-4.1016,0.43945,-6.9824,-6.8359,-10.059,-5.7617,-3.7109,2.1484,-1.4648,-4.2969,-5.957000000000001,-2.6855,0.58594,0.39063000000000003,-1.8066,0.14648,-0.14648
-2.3926,-4.4434,-7.5684,-5.0293,-6.6895,-3.4668,-0.19530999999999998,-3.6133,-8.7891,-6.9824,-6.8848,-2.4902,-4.1016,1.4648,-5.5176,-3.9551,-4.4922,-1.6602,1.0742,-2.2461,-1.1719,-0.9277299999999999
-1.4648,-6.2988,-6.3477,-6.8848,-4.4922,-5.8105,-0.14648,-6.542999999999999,-7.8613,-8.8379,-5.7617,-4.4922,-3.5645,-2.4902,-5.2246,-6.542999999999999,-3.418,-2.002,-0.63477,-2.2461,-1.1719,0.048827999999999996
1.6113,-2.3438,-3.0273,-0.6835899999999999,-2.0508,-0.5371100000000001,-0.97656,-2.6855,-4.9316,-2.5879,-2.0508,1.0254,-0.43945,2.002,-2.3926,-0.3418,-0.19530999999999998,0.97656,1.709,1.0742,1.9531,1.6113
0.43945,-6.0547,-5.957000000000001,-1.9043,-2.9297,-0.58594,-3.0273,-5.4199,-7.666,-4.3945,-4.2969,-1.8066,-3.9063,-1.416,-5.7617,-2.9297,-3.4668,-3.418,-2.4902,-3.0762,-2.1484,-3.0762
1.123,-6.4453,-6.1523,-2.6855,-2.3438,1.2207,-2.3438,-4.9316,-7.2754,-4.3457,-3.6621,-0.58594,-1.9043,-1.2207,-4.6875,-1.6602,-1.6113,-2.1973,-1.5137,-1.5137,-0.58594,-2.5879
0.14648,-7.2754,-7.5684,-1.4648,-2.002,2.832,-4.2969,-4.1016,-8.0566,-3.8086,-3.125,2.832,1.123,-0.048827999999999996,-3.9551,-0.19530999999999998,-1.5137,-0.73242,-1.5137,-1.6113,-1.5137,-3.5645
-5.5176,-11.815999999999999,-13.135,-7.6172,-7.0313,-3.1738,-5.3711,-9.4238,-14.209000000000001,-10.595999999999998,-8.8379,-3.0273,-1.6602,-5.6152,-9.6191,-7.0801,-6.8359,-5.4199,-6.2988,-7.2266,-7.8125,-10.645
-4.5898,-11.767999999999999,-14.062999999999999,-8.3984,-7.3242,-2.7344,-6.3477,-9.1797,-14.062999999999999,-10.254000000000001,-8.1055,-1.1719,-0.3418,-4.248,-8.2031,-4.1016,-5.8105,-3.2227,-4.4434,-5.2246,-5.6152,-7.959
-0.8789100000000001,-8.0078,-7.5195,-5.9082,-4.1992,-5.2246,-1.2207,-5.4199,-7.4219,-7.0801,-4.248,-2.002,-1.5625,-0.97656,-2.6367,-0.73242,-1.3184,1.0742,2.1973,0.6835899999999999,-0.43945,-0.8789100000000001
-3.1738,-7.2266,-9.2285,-4.9805,-7.4219,-5.8105,-3.9551,-5.3223,-9.9609,-5.6641,-7.2266,-4.1016,-6.0547,-2.002,-5.7617,-2.1973,-3.8086,-2.8809,-2.3926,-3.8086,-4.5898,-6.1523
-1.0742,-11.279000000000002,-8.5938,-6.6406,-4.7363,-8.2031,-7.8613,-9.5215,-9.0332,-6.7871,-5.5176,-5.3223,-5.9082,-5.4688,-5.6152,-5.1758,-5.3711,-4.5898,-3.8574,-5.5664,-5.5664,-7.2754
2.0508,-7.1777,-3.6621,-3.4668,0.5371100000000001,-3.418,-5.0781,-6.1523,-4.6875,-3.125,0.048827999999999996,-0.39063000000000003,-1.8066,-4.3457,-1.709,-3.0762,0.29297,1.7578,0.8789100000000001,-0.8300799999999999,-0.48828,-2.9297
-1.5625,-13.574000000000002,-8.9844,-7.4707,-3.9063,-6.7871,-8.8867,-11.425999999999998,-10.4,-10.4,-5.0781,-4.5898,-5.7617,-8.5938,-7.7637,-8.8379,-5.5664,-3.5156,-5.7617,-8.0078,-7.4707,-10.059
0.6835899999999999,-12.305,-8.5938,-4.7363,-1.9531,-3.125,-10.352,-11.719000000000001,-11.572000000000001,-9.9121,-4.541,-2.4902,-3.0762,-8.1543,-8.9844,-9.4727,-5.3711,-2.4902,-6.2012,-7.5195,-7.0801,-9.082
-2.2949,-12.5,-11.182,-3.8086,-4.1992,-2.6367,-13.672,-12.842,-15.039000000000001,-10.156,-6.6406,-0.97656,-3.6621,-10.498,-12.939,-11.035,-6.1035,-3.0273,-8.8379,-9.8633,-8.9844,-11.865
5.5176,-7.0313,-2.3438,0.73242,2.6855,-1.0254,-3.2715,-6.25,-4.2969,-4.1016,1.416,1.8555,3.9063,-3.8574,-1.8066,-3.1738,0.09765599999999999,1.0742,-0.58594,-1.0254,-1.2207,-1.8066
3.7598,-4.0527,-1.416,1.9531,1.1719,-2.4902,-2.5879,-3.5156,-2.3926,1.0742,2.0996,1.2207,1.123,-1.6113,0.9277299999999999,2.0508,3.9063,2.3926,2.9297,4.1016,3.2715,3.0762
1.5137,-6.2012,-1.9531,-1.3672,-1.9531,-8.0078,-2.7344,-6.0059,-1.8555,-0.39063000000000003,0.97656,-2.1973,0.24414,-3.3691,1.3672,3.2227,1.5625,-0.9277299999999999,1.2695,3.2227,1.416,1.7578
0.8789100000000001,-1.416,-1.8066,4.5898,-0.9277299999999999,-2.832,-2.3438,-0.8789100000000001,-1.2695,5.4199,0.58594,0.39063000000000003,-2.0508,2.2949,2.0996,9.8145,4.6875,0.73242,5.8105,7.6172,3.6133,6.1035
0.9277299999999999,-6.3965,-2.2949,-0.39063000000000003,-1.2207,-7.6172,-2.4414,-6.2988,-1.709,1.0254,-0.048827999999999996,-5.8105,-4.7852,-2.3926,1.8555,4.9316,1.5625,-3.5156,3.3691,4.2969,-0.09765599999999999,3.0273
1.709,-4.5898,-3.0762,2.2949,0.8789100000000001,-3.418,-3.9063,-3.9551,-2.002,4.4922,0.9277299999999999,-1.7578,-2.4902,-0.8300799999999999,2.3438,6.8359,1.8066,-3.3691,1.6113,2.9297,-1.5625,0.24414
1.4648,-9.375,-4.1016,-1.6602,0.48828,-8.2031,-5.3711,-7.9102,-2.7832,-1.2695,-2.2949,-9.7168,-8.8867,-6.2012,0.29297,-0.48828,-3.9063,-10.352,-3.4668,-3.0762,-9.2285,-7.1777
5.8594,-5.4199,-0.97656,4.9805,4.0527,-3.8574,-4.3457,-5.5664,-0.14648,3.1738,1.3672,-6.3965,-8.6426,-4.248,0.8300799999999999,2.3438,-2.3926,-9.9121,-4.3945,-3.9551,-9.5703,-7.6172
11.475,3.3203,6.25,15.722999999999999,10.059,5.3223,-1.9531,3.125,5.5176,13.525,6.5918,3.4668,-3.9551,3.8086,5.0293,11.035,4.3457,-2.1484,0.6835899999999999,0.8789100000000001,-3.3691,-1.9531
14.404000000000002,5.8105,9.9609,17.627,12.744000000000002,8.5449,1.2695,4.9805,7.5684,12.695,8.1055,5.8594,-0.24414,3.5645,4.8828,9.4727,5.5176,0.39063000000000003,-0.14648,1.5137,-1.416,-2.4902
19.238,8.4473,11.767999999999999,20.508000000000003,17.236,16.309,1.3672,4.2969,7.959,12.158,11.377,10.645,9.1309,2.1973,4.0039,7.2754,6.25,4.4434,-1.709,0.9277299999999999,0.6835899999999999,-2.3926
20.557,9.375,11.67,19.043,16.016,18.359,0.9277299999999999,2.3926,2.9297,7.5684,7.6172,11.767999999999999,10.547,-0.8300799999999999,-1.9043,2.3438,5.1758,5.4688,-3.5156,-0.19530999999999998,2.002,-1.709
15.380999999999998,4.6875,3.5645,10.498,7.0313,11.963,-3.5156,-4.9316,-6.7383,-3.8086,-0.8300799999999999,5.3223,5.8594,-7.8613,-11.377,-6.9336,-3.2227,0.48828,-9.7168,-6.6406,-2.9785,-6.542999999999999
15.527000000000001,-0.63477,0.14648,4.1016,5.2734,8.6426,-3.8574,-9.9121,-11.084000000000001,-11.425999999999998,-3.1738,0.8789100000000001,6.542999999999999,-11.377,-12.890999999999998,-11.914000000000001,-4.6387,0.39063000000000003,-9.0332,-6.4941,-2.2461,-4.1016
9.1797,-4.5898,-5.0293,-3.2227,-0.43945,2.9785,-3.0762,-12.255999999999998,-14.355,-15.527000000000001,-7.0313,-1.0254,5.0781,-11.084000000000001,-13.720999999999998,-13.33,-5.6641,-0.29297,-7.8613,-5.6152,-1.7578,-2.8809
-1.0254,-7.7637,-11.377,-8.0078,-9.0332,-6.2012,-5.2734,-9.8633,-15.527000000000001,-15.575999999999999,-11.475,-4.1992,-3.5645,-8.5938,-13.477,-11.865,-9.5703,-5.7617,-8.7891,-7.5684,-5.4199,-6.1035
0.14648,-6.6895,-7.2754,-5.4199,-2.002,-3.2715,1.123,-4.834,-7.3242,-8.5449,-2.9785,-0.3418,-0.24414,-4.3457,-4.6875,-4.6387,-0.8789100000000001,0.9277299999999999,-0.78125,0.048827999999999996,0.24414,-1.9043
4.6387,-0.8300799999999999,-0.8300799999999999,2.4902,5.2246,4.834,4.1992,2.3438,2.1484,2.4902,7.959,10.156,5.9082,2.9785,4.0527,6.3477,8.8867,9.1797,5.8105,7.4219,8.0566,4.5898
10.595999999999998,10.889000000000001,9.082,12.109000000000002,13.037,12.158,11.377,12.793,12.402000000000001,13.623,15.186,16.016,8.7402,11.328,11.328,14.99,14.940999999999999,13.037,10.985999999999999,13.232000000000001,11.865,7.9102
8.0078,7.1289,7.1289,7.3242,8.7402,7.1777,8.3008,8.252,8.5938,7.666,9.6191,7.7148,2.3438,4.1016,6.5918,7.2266,8.1055,5.5176,5.9082,6.6406,4.9805,2.6855
14.355,11.328,13.037,11.425999999999998,12.744000000000002,9.668,11.279000000000002,10.059,12.305,10.352,13.525,9.9609,7.2266,5.8105,10.01,9.0332,9.8633,7.5195,8.1055,10.352,9.2285,7.2266
9.2773,7.7637,6.8848,3.125,4.7852,1.6113,8.4473,5.4199,4.3457,1.6113,2.3438,0.48828,-0.5371100000000001,1.3672,3.4668,1.2695,2.1973,-0.5371100000000001,3.7109,5.9082,3.8574,5.3223
3.5645,0.19530999999999998,-1.3184,-5.1758,-3.8086,-5.3711,1.0742,-3.3691,-4.6875,-9.9121,-5.8105,-6.5918,-0.9277299999999999,-6.5918,-4.6387,-7.0313,-6.542999999999999,-6.7871,-2.5879,-0.48828,-1.0254,1.9043
-3.5645,-3.9551,-7.9102,-9.8633,-10.4,-8.5938,-4.6387,-8.0078,-10.84,-14.745999999999999,-12.158,-9.8633,-2.5391,-8.8867,-10.498,-10.4,-8.9844,-8.8867,-4.6875,-3.418,-2.6855,1.5137
-4.4922,-1.6113,-7.5684,-6.9824,-9.375,-4.0039,-4.3945,-3.0273,-8.2031,-8.3008,-10.302999999999999,-6.6895,-5.127000000000001,-2.5391,-5.9082,-4.5898,-5.4688,-4.5898,1.0742,1.5625,1.7578,7.8125
2.1973,4.5898,0.14648,2.4902,0.6835899999999999,4.4434,0.14648,4.6875,2.6367,3.9063,1.6602,4.3457,4.3945,5.3711,5.127000000000001,7.4219,5.3223,5.4688,8.8867,10.693,10.742,16.846
6.542999999999999,7.2266,6.9824,8.9355,10.059,10.84,0.9277299999999999,6.1523,8.9355,12.255999999999998,11.23,10.937999999999999,10.302999999999999,5.1758,9.4727,11.572000000000001,14.110999999999999,12.354000000000001,9.7168,13.427999999999999,14.453,18.018
6.5918,8.7891,8.252,12.012,8.8867,9.8633,0.73242,8.3496,10.645,15.479000000000001,10.547,10.156,3.7598,5.9082,9.3262,12.988,10.449000000000002,7.3242,5.957000000000001,7.666,7.8125,9.5215
9.8145,10.302999999999999,12.450999999999999,14.892999999999999,12.695,9.2773,4.9316,11.377,15.283,17.48,14.307,9.9609,4.6387,8.1055,12.255999999999998,12.988,12.645999999999999,8.5938,8.0566,8.4473,9.0332,10.790999999999999
10.790999999999999,7.959,12.645999999999999,14.550999999999998,13.379000000000001,9.2285,5.3711,9.2773,14.6,16.553,14.745999999999999,10.302999999999999,5.3223,4.7852,11.572000000000001,10.889000000000001,11.23,6.25,4.4434,4.1016,4.2969,4.1992
8.9844,10.937999999999999,12.402000000000001,16.406,12.645999999999999,10.985999999999999,4.7363,11.719000000000001,12.842,16.895,12.988,11.377,4.834,6.2012,9.9121,9.8633,8.0078,3.9063,2.002,1.3672,0.5371100000000001,0.9277299999999999
14.307,16.895,16.211,21.581999999999997,16.699,17.139,8.4473,15.770999999999999,15.527000000000001,20.947,15.869000000000002,16.602,8.4961,11.133,12.549000000000001,14.502,14.6,9.8633,9.3262,8.1055,7.666,8.4473
13.33,14.745999999999999,14.014000000000001,17.334,14.648,16.846,8.0078,12.842,13.184000000000001,18.115,15.625,16.553,10.449000000000002,11.182,12.549000000000001,15.186,14.258,12.255999999999998,10.547,10.059,9.5703,11.035
13.623,15.82,14.404000000000002,18.311,15.82,17.969,11.279000000000002,13.379000000000001,13.77,18.359,16.357,17.383,12.842,12.549000000000001,14.062999999999999,16.748,16.699,14.355,12.939,11.572000000000001,11.815999999999999,11.279000000000002
16.65,19.434,17.383,22.559,20.361,24.17,12.645999999999999,16.162,17.773,23.291,21.338,24.511999999999997,21.875,15.527000000000001,17.09,21.386999999999997,23.291,21.729,15.137,15.674000000000001,17.969,14.453
13.77,15.039000000000001,13.574000000000002,18.457,18.408,21.924,6.6895,11.914000000000001,14.014000000000001,20.996,20.361,23.877,19.238,11.425999999999998,14.16,18.945,19.629,18.408,10.156,11.084000000000001,13.965,7.6172
12.890999999999998,10.059,13.33,13.77,19.58,18.75,7.666,8.5449,13.867,16.406,20.313,19.775,19.678,7.1777,13.77,13.77,19.141,18.604,8.4473,10.059,12.5,6.0059
11.377,9.375,12.354000000000001,12.645999999999999,16.942999999999998,16.846,7.666,8.6914,13.280999999999999,14.892999999999999,18.408,16.895,11.572000000000001,7.1777,13.037,12.597999999999999,16.016,13.915999999999999,6.7871,8.1543,8.9355,2.832
13.525,13.037,14.307,16.942999999999998,19.141,19.922,8.0566,11.865,15.575999999999999,18.604,19.971,20.361,10.498,11.377,13.915999999999999,16.016,19.531,17.676,10.790999999999999,10.985999999999999,12.402000000000001,7.7637
13.867,14.648,15.674000000000001,18.213,18.994,19.482,10.889000000000001,13.915999999999999,16.064,18.945,19.678,19.531,10.107000000000001,13.77,15.039000000000001,15.82,18.604,16.309,13.184000000000001,12.354000000000001,12.645999999999999,10.302999999999999
11.67,11.475,13.184000000000001,13.77,15.380999999999998,12.890999999999998,9.6191,10.4,13.085999999999999,14.258,15.479000000000001,13.623,7.8125,11.377,13.184000000000001,11.035,12.890999999999998,11.084000000000001,11.815999999999999,9.375,8.6426,7.959
10.742,11.475,13.379000000000001,13.184000000000001,14.648,9.4238,11.279000000000002,9.0332,12.450999999999999,13.379000000000001,14.062999999999999,9.7656,7.5195,9.4727,12.109000000000002,8.1543,11.963,9.6191,10.889000000000001,8.3008,7.666,6.6406
12.890999999999998,12.061,12.939,15.43,13.525,10.352,8.3984,8.252,11.620999999999999,13.379000000000001,13.232000000000001,9.1309,7.1289,9.2285,10.790999999999999,8.4473,9.1797,6.7871,9.1797,5.6152,4.7363,3.5645
11.914000000000001,8.5449,10.889000000000001,11.719000000000001,12.061,8.3008,7.2266,4.834,8.7402,8.7402,10.645,6.3477,7.4219,6.8359,7.666,5.0293,5.7617,2.832,5.8105,2.4414,0.97656,-0.73242
16.357,10.302999999999999,14.892999999999999,16.553,18.848,14.502,11.23,9.5215,14.062999999999999,15.575999999999999,17.578,12.695,13.280999999999999,13.085999999999999,14.502,11.620999999999999,14.404000000000002,10.01,13.77,10.01,9.082,7.3242
16.406,11.914000000000001,14.404000000000002,18.75,19.189,16.553,11.377,12.695,15.479000000000001,18.359,18.506,15.82,14.062999999999999,17.48,17.676,16.113,15.82,12.450999999999999,16.748,13.818,13.280999999999999,12.597999999999999
