Fz,FC3,FC1,FCZ,FC2,FC4,C5,C3,C1,Cz,C2,C4,C6,CP3,CP1,CPZ,CP2,CP4,P1,Pz,P2,POZ,23,24,25
-14.893,-15.625,-11.963,-13.281,-15.82,-20.752,-13.672,-15.723,-11.719,-9.9609,-13.477,-18.848,-15.479,-13.037,-9.0332,-7.7148,-9.668,-12.158,-13.867,-7.959,-7.1777,-6.3965,2.4414,-4.8828,-12.695
-11.328,-11.865,-10.205,-7.959,-12.451,-14.014,-11.475,-11.328,-9.1797,-4.9316,-10.107,-11.328,-9.6191,-9.1309,-7.0313,-4.0039,-4.2969,-6.25,-11.621,-5.2734,-4.5898,-6.6895,-2.9297,-5.3711,1.9531
-11.279,-12.061,-10.889,-6.25,-12.012,-11.084,-10.449,-9.9121,-11.328,-4.9805,-10.205,-8.1543,-6.7383,-8.0566,-8.6914,-3.8086,-6.25,-6.6406,-13.721,-7.666,-6.4941,-10.01,-0.48828,-3.9063,-3.9063
-7.8125,-13.867,-9.7656,-6.9824,-5.8594,-7.4707,-6.8359,-11.133,-10.059,-6.0547,-6.543,-5.9082,1.1719,-10.791,-7.6172,-6.1523,-3.9551,-3.3691,-13.135,-7.2266,-5.2734,-9.9609,3.9063,6.3477,3.9063
-13.672,-19.629,-16.113,-11.719,-11.475,-9.5215,-12.012,-16.65,-16.797,-12.402,-10.791,-8.2031,-1.6602,-14.941,-13.281,-10.938,-9.5703,-7.8613,-19.141,-12.988,-11.523,-16.797,-8.3008,-4.8828,-2.9297
-8.9355,-14.6,-11.572,-7.7148,-7.8613,-6.6406,-9.0332,-11.084,-12.109,-8.3496,-8.5938,-5.7617,-2.0996,-9.082,-10.059,-5.6152,-5.5176,-4.9316,-13.672,-8.7402,-7.959,-12.988,0.97656,0.48828,4.3945
-11.377,-14.697,-10.889,-11.23,-11.133,-12.695,-8.2031,-11.279,-11.133,-10.498,-10.107,-11.23,-5.3711,-8.7891,-8.1543,-8.3008,-8.7891,-9.4727,-14.209,-9.7656,-10.596,-13.232,-9.2773,-0.48828,4.3945
-10.547,-5.5176,-8.2031,-6.5918,-11.768,-9.9121,-1.0254,0.39063,-6.1035,-4.1016,-10.4,-7.4707,-6.9336,2.8809,-2.0996,0,-6.2012,-8.252,-5.2246,-2.7344,-5.3223,-3.5645,-0.48828,-2.9297,1.9531
-8.3008,-2.4902,-4.4922,-6.3477,-10.547,-10.742,3.4668,2.9297,-3.1738,-4.4922,-10.205,-9.7168,-9.5703,3.9063,-0.29297,-2.2949,-5.7617,-7.959,-4.2969,-2.6367,-5.3223,-3.4668,0.48828,-0.97656,-1.9531
-9.2285,0.53711,-4.541,-3.7598,-12.793,-9.9121,2.5391,3.9551,-3.0762,-2.832,-10.4,-8.6426,-10.352,4.4922,-0.92773,-0.92773,-6.4941,-8.6914,-4.2969,-3.0762,-5.5664,-2.6855,-1.9531,0.48828,-5.3711
-10.791,-1.123,-4.541,-5.6641,-12.793,-11.084,1.5137,1.5625,-4.0039,-3.7598,-10.596,-9.668,-8.2031,1.0254,-2.6367,-2.3438,-7.1289,-8.2031,-5.6641,-4.5898,-5.8105,-3.6621,-0.97656,0,-6.3477
-8.9355,-0.73242,-3.9063,-3.3203,-8.8867,-6.2988,0.43945,1.1719,-3.6133,-2.4414,-5.9082,-3.5156,0.3418,-0.73242,-2.0996,-0.87891,-2.7344,-1.9043,-5.0293,-1.5625,-2.3926,-1.0254,1.9531,2.9297,-2.4414
-2.1484,2.0996,1.4648,2.4902,-2.1484,-1.7578,0.78125,2.002,1.0254,3.6133,1.0254,2.002,4.7852,0.097656,2.2461,4.3457,2.4414,3.0273,-3.0273,2.1484,2.0508,2.832,2.4414,11.719,-0.97656
0.68359,6.4453,4.8828,5.8105,0.97656,-0.87891,2.3926,5.1758,3.5645,7.5684,3.418,2.7832,1.9531,2.9297,5.2246,7.2266,6.6895,5.3223,0.53711,6.5918,5.5176,5.1758,-6.3477,0,-2.4414
-1.0742,3.6133,3.6133,1.3184,-1.0254,-5.5176,2.002,3.418,3.6621,4.3945,2.0996,-1.416,-1.5625,3.7598,6.0059,6.2988,4.541,2.9297,1.0254,5.6641,4.8828,4.541,-4.8828,2.9297,-4.8828
3.9551,9.7656,8.252,7.3242,2.5391,-0.39063,8.4961,9.1797,7.959,8.7402,5.2734,2.4414,-0.83008,9.2773,8.6914,10.693,9.1797,6.7383,5.3223,9.4238,9.1309,7.7148,-0.97656,3.9063,-9.2773
1.6602,4.7852,4.6387,1.8555,0.53711,-1.9531,6.1035,4.6387,3.5645,2.3438,1.7578,-0.63477,0.097656,5.1758,4.8828,4.1016,3.4668,2.6855,1.416,4.5898,4.4922,5.3223,-3.418,0.48828,-12.207
3.7109,9.0332,7.7148,3.6621,2.7832,-0.3418,13.281,10.205,7.8125,4.3945,3.9551,1.5625,4.834,9.6191,9.4238,6.1035,4.4434,4.6387,4.541,6.3965,6.25,7.373,5.3711,10.742,-5.8594
0.58594,9.0332,5.3711,4.7852,0.97656,2.9297,10.01,11.426,5.957,7.3242,3.5645,5.3711,5.5664,11.914,9.2285,9.2285,8.2031,9.0332,8.1543,11.035,10.205,12.598,0,10.742,-3.418
6.3477,8.3008,10.498,5.957,5.2246,5.0293,11.719,11.133,10.498,7.7637,8.4961,9.4727,15.479,13.574,14.795,12.549,11.621,14.16,13.379,16.064,15.43,18.652,1.4648,13.672,-5.3711
8.0078,13.086,11.816,9.1309,4.248,5.3223,13.477,14.697,11.475,9.3262,6.8848,8.4473,10.84,17.48,16.016,14.355,12.549,14.111,15.674,17.725,16.504,19.971,0.48828,18.066,3.9063
5.8105,10.107,9.8145,5.7129,0.68359,0.78125,9.082,11.475,8.5938,5.3711,3.3691,5.5176,5.3223,15.674,12.305,10.254,8.6426,9.8633,12.744,13.037,12.207,15.137,6.3477,15.137,-2.9297
0.14648,6.8359,3.6621,1.7578,-4.9805,-2.7832,1.7578,7.0313,1.0742,0.73242,-3.2715,1.2695,-0.83008,9.0332,4.1992,3.2227,0.048828,2.2461,3.7598,3.5645,2.9785,5.0781,-0.48828,7.8125,-1.9531
2.6367,5.9082,4.5898,1.2695,-2.3926,-2.5391,3.6133,5.2734,0.48828,-1.6113,-1.8066,1.0742,2.3438,6.2012,2.9297,-0.97656,0.68359,3.7598,2.8809,3.6133,4.1504,6.3477,5.8594,8.3008,-1.4648
-0.97656,-0.78125,-1.3672,-3.1738,-5.2734,-4.7852,-2.7832,-1.8066,-5.8105,-7.2266,-5.6641,-1.8555,-2.0996,-2.002,-4.7363,-7.5684,-5.5176,-2.0996,-6.0547,-5.3223,-3.7598,-3.3203,-0.48828,4.3945,-0.48828
5.2734,3.1738,4.6875,2.1484,2.002,-1.416,2.8809,0.63477,-1.1719,-3.5645,-0.29297,-0.3418,0.097656,0.58594,-1.3184,-5.3223,-2.1973,0.29297,-2.6855,-2.6855,-1.9531,-1.3184,-3.9063,1.4648,-1.9531
3.1738,2.1973,2.5879,0.19531,-0.39063,-3.0762,4.541,1.6602,-1.416,-3.9551,-2.002,-2.3926,-1.0254,1.0254,-0.29297,-5.2246,-2.9785,-1.5137,-2.832,-2.832,-2.4414,-2.6367,-5.3711,6.3477,1.4648
2.8809,2.5391,3.0762,0.39063,-0.97656,-4.541,6.2988,1.9531,-0.83008,-3.5156,-2.0996,-2.2949,-1.1719,1.5625,0.53711,-4.3945,-3.3203,-1.6602,-4.4922,-2.9297,-2.4902,-4.9316,-1.4648,6.8359,-5.8594
-2.002,3.5645,0.58594,1.5137,-4.0527,-2.9785,2.6367,4.1016,-2.6367,-0.73242,-5.6152,-2.002,-5.7617,3.3691,-1.123,-1.8066,-1.9531,-0.92773,-1.6113,0.48828,0.14648,0.58594,-1.4648,8.7891,2.4414
-0.73242,0.48828,1.2207,-0.92773,-4.4922,-7.2754,5.4199,2.1973,-0.048828,-3.9551,-4.4434,-6.1523,-4.1016,3.4668,1.709,-2.9297,-3.8574,-2.832,0.63477,0.87891,-0.29297,2.6367,-1.4648,9.2773,1.4648
-1.4648,0.3418,0.73242,-0.78125,-3.9063,-5.8105,7.1289,3.7598,1.123,-1.5137,-1.9531,-2.9785,-0.48828,7.5684,5.0781,1.1719,0.83008,1.9531,6.7383,7.1777,5.9082,12.305,0,10.254,-0.97656
-10.84,-10.498,-8.9355,-9.3262,-12.598,-14.551,-3.4668,-6.3477,-8.0566,-8.9844,-10.352,-10.254,-9.9121,-1.416,-3.3691,-5.8105,-6.4941,-6.3965,-0.43945,0.24414,-1.3672,5.4688,-6.8359,-1.4648,-8.3008
-5.957,-7.0801,-5.5664,-4.4922,-8.3008,-10.449,-0.87891,-2.1973,-3.9551,-4.2969,-6.1035,-6.7383,-6.8848,2.6367,0.73242,-1.0742,-3.6133,-4.2969,3.9551,3.2227,1.4648,8.7402,-1.4648,10.254,3.418
-3.7598,-3.418,-2.5391,-0.58594,-4.1504,-6.9824,1.416,0.87891,0.29297,1.6602,-1.3184,-1.709,-3.1738,5.3223,4.834,3.9551,2.6855,1.9043,7.6172,8.6426,6.8359,12.158,3.418,10.254,0.97656
-10.156,-6.543,-7.959,-5.6641,-10.693,-11.279,-1.9531,-3.5156,-4.834,-1.9531,-5.3711,-3.7598,-6.4941,0.39063,-0.14648,1.123,-1.709,-1.0254,-0.29297,2.4414,1.2695,4.3945,-4.8828,1.4648,-10.742
-7.5195,-4.5898,-4.3945,-3.8574,-7.373,-9.0332,-0.29297,-2.7832,-2.4902,-0.92773,-2.4414,-2.7344,-1.5625,0.39063,1.123,2.9785,1.5625,2.5879,0.53711,4.3457,4.0039,4.1992,1.4648,8.7891,0
-2.2949,1.3672,0.78125,1.7578,-2.6855,-2.5879,4.3457,2.9785,2.4902,6.2988,1.7578,4.1504,2.9785,5.5176,5.7129,9.7656,7.5684,8.6426,6.0059,10.742,10.645,9.7656,2.9297,10.742,0.48828
-1.7578,-3.0762,-0.78125,-0.83008,-2.9297,-4.1992,4.2969,-0.92773,1.416,2.1973,2.0996,1.3672,4.6875,3.3203,7.0313,7.5195,5.3223,6.25,4.8828,9.4727,8.7402,9.082,2.4414,9.2773,5.8594
-6.4941,-3.8574,-5.8105,-2.0996,-7.666,-5.0293,-1.0742,-1.3672,-4.2969,-0.097656,-5.4688,-1.2207,0,3.125,1.1719,4.8828,2.832,3.9551,3.8086,8.2031,6.7871,9.7168,3.9063,9.2773,10.742
-3.8574,-7.959,-4.834,-4.1016,-7.1289,-7.0801,-0.58594,-6.2012,-4.9316,-4.1504,-4.5898,-2.832,4.5898,-0.29297,0.87891,1.416,0.68359,3.6133,3.5645,8.1055,7.3242,11.475,2.4414,11.719,9.2773
-2.8809,-4.4922,-5.8594,-0.29297,-5.5176,-0.87891,-1.2207,-2.6367,-5.127,-0.68359,-3.8574,2.002,5.3223,4.248,0.39063,4.834,4.5898,7.2754,7.0801,11.475,10.986,15.723,7.3242,18.555,19.531
-6.3965,-9.1309,-7.4219,-6.3965,-8.6914,-8.0078,-2.0996,-6.7383,-6.8848,-6.8848,-5.8594,-4.6875,-0.048828,-2.002,-1.3672,-1.7578,-1.123,-0.048828,0.58594,4.541,3.7109,7.5195,2.4414,10.254,5.8594
0.92773,-2.5879,1.2207,3.0273,2.832,1.8555,5.5664,3.2227,3.7598,4.8828,7.1289,6.6406,10.986,6.3965,8.9844,8.8867,9.9121,9.7656,10.059,13.477,13.135,15.137,3.418,7.8125,4.3945
-0.78125,-2.832,1.5625,3.0273,3.6621,0.3418,5.8105,4.0039,4.3945,7.4707,9.3262,8.0078,9.0332,6.6406,10.107,10.254,12.891,13.037,11.719,17.578,16.846,17.969,0.97656,2.4414,2.9297
4.6875,8.6426,8.7891,13.428,9.4727,8.7891,16.455,16.992,12.891,18.115,16.211,15.527,12.598,20.068,19.238,22.119,19.922,17.822,21.533,26.709,24.951,28.662,10.254,7.3242,0.48828
9.7168,13.721,13.281,20.313,13.77,13.916,18.311,21.094,16.992,22.607,18.213,18.604,15.43,24.414,21.875,25.83,23.389,21.68,24.365,29.541,28.223,33.105,13.184,10.742,0
14.697,18.555,17.92,23.535,16.846,16.504,20.703,23.291,18.555,25.049,19.922,20.215,15.918,23.389,21.436,25.146,23.242,20.801,22.266,27.686,25.879,29.102,12.207,17.578,8.3008
14.355,16.504,16.504,20.264,14.063,11.084,16.553,17.92,15.869,19.141,13.965,11.719,10.303,17.578,17.285,17.48,14.307,11.816,14.941,19.629,17.871,21.387,18.555,20.508,1.4648
18.799,22.363,21.387,25.098,17.92,16.064,17.578,21.338,18.457,22.51,15.479,13.672,10.84,18.408,18.701,19.678,16.748,12.5,17.236,21.875,19.727,25.635,14.16,22.949,9.2773
27.246,27.246,26.758,30.908,23.633,22.754,17.09,22.705,21.484,26.074,20.166,17.529,12.5,18.164,19.385,21.826,16.455,12.158,13.477,20.117,16.455,20.361,16.602,21.973,0.48828
24.023,22.51,23.486,28.223,22.168,22.559,10.889,19.482,18.994,23.584,16.699,13.574,8.3984,14.6,16.602,19.238,14.16,9.2773,11.621,16.504,11.621,14.697,9.2773,14.16,-0.97656
27.588,24.707,27.686,30.273,27.246,25.293,14.99,22.607,23.682,27.051,22.168,16.943,12.891,17.871,22.168,22.949,17.578,13.281,15.479,19.727,15.381,19.434,14.16,19.043,1.4648
28.809,27.686,28.369,33.887,29.736,30.664,13.086,23.975,24.707,31.934,25.342,23.34,14.355,18.555,21.729,26.025,20.898,16.65,14.453,18.848,16.211,19.043,8.3008,20.996,-3.9063
28.271,25.195,29.395,30.322,29.736,27.441,12.695,20.752,24.023,27.832,24.512,20.41,15.332,13.184,20.117,20.459,17.822,14.99,9.7168,14.111,12.207,12.598,7.3242,20.508,5.3711
25.146,23.34,26.172,28.516,24.609,22.021,9.2773,17.773,19.727,24.268,19.336,16.016,9.8145,11.572,15.039,16.992,10.498,8.252,4.0039,6.9824,5.4688,4.9316,1.4648,14.16,0.48828
34.473,29.102,34.912,35.645,34.131,31.201,15.625,20.557,25.293,27.979,27.734,23.096,21.24,12.939,19.824,20.068,18.311,17.285,8.3008,12.842,10.84,9.4727,1.9531,22.461,2.9297
35.84,34.766,36.279,41.602,35.938,37.5,19.482,28.223,28.711,34.18,30.371,30.664,23.389,24.658,24.854,28.662,24.658,22.9,17.773,21.094,18.604,19.141,10.742,25.391,9.7656
35.01,33.008,36.816,39.404,36.768,35.107,22.998,28.76,30.713,32.568,30.371,27.979,23.34,26.758,28.467,27.441,22.803,21.68,20.02,22.021,18.506,19.238,5.3711,12.207,-0.97656
35.693,28.027,33.984,37.109,37.354,35.84,18.945,23.975,27.686,29.053,29.736,26.611,24.023,20.508,25.195,23.242,22.852,21.68,16.602,18.945,15.869,12.988,5.3711,15.625,6.8359
37.158,27.734,32.91,35.4,35.156,32.813,19.727,22.314,26.855,26.221,27.734,23.389,19.385,19.971,24.365,21.68,18.604,17.041,14.209,16.504,13.477,11.279,20.508,32.715,12.207
31.592,24.072,28.76,30.859,29.004,25.146,14.648,19.287,22.314,22.412,21.875,16.846,10.791,15.527,19.287,17.676,15.576,13.623,10.107,12.061,9.668,7.0313,6.8359,21.973,14.648
32.324,27.295,28.955,29.102,27.1,25.146,16.211,20.313,20.264,20.117,18.848,15.918,10.938,13.916,15.674,14.16,12.451,11.768,6.3477,8.7402,7.1289,4.9805,19.043,29.297,20.02
33.984,32.422,30.029,33.691,28.027,30.615,16.553,24.121,20.215,22.949,21.436,22.119,16.211,16.309,15.332,17.285,14.307,14.014,6.0547,8.5449,7.7637,3.9551,13.184,34.18,22.949
30.908,27.588,28.857,28.564,28.516,29.199,16.211,20.752,19.189,19.043,20.898,20.654,17.92,13.916,14.941,13.281,14.307,14.355,6.8848,9.8633,8.7891,6.1523,16.113,25.879,14.16
28.76,24.902,25.439,25.195,25.732,27.197,18.164,18.701,17.09,14.795,19.727,19.629,18.701,14.063,14.648,11.572,12.061,13.916,8.3496,10.205,9.5215,9.375,11.719,21.973,9.2773
21.094,17.236,17.822,18.066,20.02,24.658,13.086,12.354,9.5215,8.4961,13.721,16.406,18.213,10.352,7.8125,7.4707,9.2773,12.305,5.2246,8.4961,9.082,8.9844,17.578,21.973,10.742
14.6,13.33,11.719,14.746,13.867,20.02,10.156,10.693,5.127,6.0547,8.7402,12.988,14.258,9.5215,4.6875,4.7852,6.9336,10.01,4.3945,6.6406,8.252,8.6914,14.16,15.625,4.3945
17.529,13.525,14.209,15.967,16.504,20.947,12.305,11.084,7.2754,8.2031,11.67,16.211,21.533,10.254,7.7148,6.9824,7.4219,12.402,5.5176,7.8125,9.375,9.375,14.648,21.973,14.16
10.449,5.8594,7.0313,6.4453,9.668,13.135,7.2266,3.0762,-0.24414,0.097656,4.4434,7.5684,13.623,0.048828,-0.92773,-1.3672,1.9043,5.2734,-2.8809,0.097656,1.3672,-0.39063,2.9297,12.207,11.23
-2.8809,-7.9102,-6.8359,-5.9082,-4.3457,-1.709,-5.6152,-9.9609,-14.111,-13.33,-8.5449,-6.0059,-1.2695,-13.33,-13.818,-13.965,-12.256,-8.7402,-18.408,-16.455,-13.281,-19.189,-2.9297,1.9531,2.9297
5.2246,-1.8066,0.58594,2.3926,5.127,6.6406,2.1484,-3.2715,-5.127,-5.5176,0.83008,1.2207,8.6914,-6.6406,-5.8594,-6.8848,-3.7598,0.63477,-11.914,-9.5703,-5.7617,-12.793,9.7656,14.16,18.066
-7.0313,-9.7656,-12.158,-6.3477,-7.373,-0.83008,-6.7871,-10.254,-18.018,-13.867,-11.377,-6.4453,-3.4668,-14.258,-18.799,-15.771,-14.404,-10.303,-22.168,-20.996,-18.506,-26.221,10.254,8.7891,11.23
-6.6895,-11.719,-12.744,-6.25,-6.0547,-0.92773,-8.9355,-11.621,-18.018,-13.379,-10.84,-5.6641,-2.1484,-14.111,-17.334,-14.941,-14.502,-10.889,-22.217,-19.531,-17.627,-25.635,10.254,6.8359,5.8594
-6.2012,-13.037,-11.23,-10.84,-5.957,-5.2246,-3.125,-12.451,-16.309,-17.334,-10.352,-9.4727,-1.4648,-16.309,-14.795,-18.164,-12.646,-8.7402,-18.75,-16.357,-14.453,-20.02,16.113,17.578,18.555
-10.84,-10.303,-14.453,-10.791,-12.207,-6.9336,-6.0059,-12.061,-19.141,-16.895,-14.648,-8.7891,-5.127,-13.086,-17.48,-16.309,-14.99,-10.01,-18.115,-16.504,-15.576,-18.701,9.7656,8.3008,8.3008
-8.3008,-6.8848,-11.084,-7.5195,-9.668,-3.9063,-2.4902,-8.1055,-15.186,-12.256,-11.328,-4.8828,-1.1719,-7.373,-13.574,-9.8145,-9.4238,-4.6875,-11.963,-10.498,-8.6914,-10.742,2.9297,8.3008,9.7656
-7.3242,-8.8379,-11.133,-9.6191,-8.4961,-3.9063,-3.2227,-9.5703,-14.551,-12.842,-9.5215,-4.1016,0.19531,-8.7402,-11.377,-10.596,-8.252,-3.6133,-12.256,-9.4727,-7.8125,-8.4961,9.2773,10.742,14.648
-8.252,-13.33,-13.135,-12.646,-8.0566,-5.3223,-4.9805,-14.307,-15.332,-15.576,-9.1309,-5.7617,1.5625,-14.844,-12.793,-13.721,-10.303,-5.7129,-17.188,-13.477,-10.596,-12.5,7.3242,3.9063,8.3008
-11.035,-12.842,-15.039,-12.158,-8.4961,-2.7832,-5.9082,-11.816,-15.43,-13.135,-9.4727,-3.5156,0.53711,-11.377,-11.914,-11.328,-7.3242,-2.8809,-14.111,-9.668,-7.2266,-9.4727,2.4414,5.3711,8.3008
-9.2285,-11.816,-14.307,-10.596,-7.373,0.83008,-3.0762,-8.3496,-12.842,-11.182,-6.2988,0.43945,4.4922,-7.9102,-9.3262,-7.0801,-4.7852,0.58594,-11.523,-6.8848,-3.5645,-5.957,12.207,14.648,11.23
-12.744,-13.232,-16.406,-13.428,-10.059,-3.3203,-5.4199,-9.7656,-14.648,-12.988,-9.9609,-4.1016,-3.0273,-8.7891,-10.889,-7.959,-6.2012,-2.5391,-11.768,-6.8359,-3.8086,-5.3711,13.672,15.137,11.719
-13.916,-13.965,-17.285,-15.43,-12.012,-5.0293,-5.5176,-9.1309,-14.941,-14.355,-11.914,-6.1035,-5.6641,-8.3984,-11.816,-10.107,-7.8613,-5.1758,-13.721,-9.9609,-7.8125,-9.8145,7.8125,9.7656,2.4414
-14.404,-13.086,-14.404,-14.99,-9.9609,-6.1035,-3.2715,-7.2754,-11.572,-12.646,-8.9355,-4.8828,-3.7109,-7.5684,-9.668,-9.0332,-7.2754,-4.0527,-14.209,-9.375,-6.9824,-11.523,3.9063,6.8359,0
-4.9316,-3.5645,-5.3223,-4.7363,0.53711,4.0527,3.9551,1.4648,-4.2969,-2.7832,0.97656,4.6387,4.1992,-0.048828,-1.7578,-1.8555,2.4414,5.2246,-5.8105,-1.5625,-0.53711,-3.7598,12.207,11.719,8.7891
-7.373,-7.1777,-10.791,-4.8828,-2.7344,3.418,-2.6855,-2.1484,-9.375,-5.4199,-3.8574,1.6113,-1.2207,-3.5645,-8.1055,-4.248,-5.2246,-2.7344,-11.475,-8.5449,-8.9355,-12.012,0.48828,4.8828,-0.48828
-3.4668,-6.543,-5.1758,-4.1504,2.1484,4.2969,0.97656,-1.5625,-4.1992,-5.3711,1.0742,3.418,5.3223,-3.6621,-2.832,-2.0508,-1.3672,0.58594,-7.5195,-4.9316,-5.4688,-9.2773,5.3711,5.8594,6.3477
-3.5645,-3.2715,-5.957,-2.0996,1.709,8.0078,0.68359,1.2695,-4.6387,-1.6113,1.0742,6.6895,6.6895,-0.53711,-2.3438,0.048828,0.83008,2.5879,-4.7852,-2.5879,-3.5156,-5.7617,4.8828,11.23,9.7656
-3.0273,-4.2969,-4.1992,-4.834,1.6602,2.3438,3.9551,-0.29297,-1.2695,-2.8809,0.73242,1.5625,3.418,-1.2695,0.92773,-0.24414,-1.8066,-1.2207,-4.1504,-2.2461,-4.3945,-4.1016,7.8125,15.137,10.742
-4.7852,-2.1973,-5.2246,-3.2715,-1.0742,2.3926,1.1719,1.6113,-3.1738,-1.0254,-0.78125,1.0742,-1.6602,-0.24414,0.53711,1.2207,0.73242,0,-4.1016,-0.48828,-3.1738,-3.3203,7.3242,11.23,1.4648
-4.248,-1.5137,-4.1992,-2.4902,-0.83008,3.1738,0.73242,0.24414,-2.3926,-0.29297,0.78125,2.8809,2.5879,-1.416,0.58594,2.6855,0.63477,0.83008,-6.2988,-2.7344,-3.7598,-7.8125,3.418,8.3008,-2.4414
-5.5664,0.78125,-3.7598,-0.58594,-2.0508,2.9297,1.8555,3.3203,-1.416,2.6367,-0.78125,2.2461,-3.2715,1.8066,0.14648,4.4922,1.0742,0.097656,-6.3965,-3.3691,-4.1504,-8.2031,7.3242,4.3945,-0.97656
-0.83008,3.9063,-0.39063,3.9063,2.832,8.0078,3.7109,5.5176,0.97656,5.4199,4.1992,7.0801,1.4648,3.7598,2.1484,6.7871,5.2734,4.6875,-4.9805,-1.5625,-1.6113,-8.252,4.8828,6.8359,4.3945
-3.3203,-1.1719,-3.8574,-1.6602,-0.78125,0.48828,2.2949,0,-3.418,1.0254,-0.19531,1.709,-1.6113,-3.0273,-2.9297,0.53711,-1.0254,-0.53711,-11.279,-8.4473,-7.4707,-16.016,2.4414,4.3945,-2.4414
-4.5898,1.3672,-2.9785,-1.8066,-0.63477,1.9531,4.1504,3.2227,-1.8066,2.1484,0.3418,3.2227,2.3926,-0.43945,-0.63477,1.6602,2.002,3.5645,-6.2988,-3.7598,-3.4668,-8.252,9.2773,9.7656,6.8359
-4.4922,1.0742,-4.1504,-2.8809,-1.1719,3.7598,4.4434,3.5645,-2.3926,1.6602,0.58594,5.7617,6.5918,-0.63477,-1.6602,1.416,1.4648,4.1504,-7.5195,-5.1758,-4.541,-11.182,4.8828,12.695,7.3242
-3.7109,-0.43945,-1.5137,-2.1973,0.63477,2.6367,6.2988,2.2949,0.53711,2.2461,3.0273,4.2969,5.8105,0.48828,1.1719,2.0996,4.0527,5.6641,-3.3691,-0.73242,-0.48828,-4.248,11.23,8.3008,3.9063
-4.4922,-1.0254,-0.29297,-4.4922,-0.29297,-0.048828,4.834,1.709,1.9043,1.3184,2.7832,2.6367,6.1523,0.97656,3.4668,1.3672,2.9785,4.4922,-2.1484,-0.48828,0,-1.9043,5.8594,5.3711,12.207
-4.4434,2.5391,0.83008,-1.2207,1.2207,3.9551,5.6641,6.3477,3.6133,6.0547,5.127,8.3496,7.8125,5.9082,4.9805,5.9082,5.8105,7.1777,-1.0254,0.92773,1.3672,-4.3457,7.8125,5.3711,5.8594
0.58594,3.5156,5.3711,2.0996,6.7871,6.4941,8.252,6.8848,7.0801,8.9844,9.375,9.1309,8.3008,7.4707,9.0332,7.7148,9.5215,10.547,2.6367,4.834,4.541,0.39063,4.3945,5.3711,4.3945
4.7852,8.3496,7.1289,8.3008,8.5938,10.498,8.8867,10.938,8.7891,12.744,10.938,13.525,11.523,13.525,10.645,11.328,11.963,13.672,7.2754,8.7402,7.666,4.9316,9.2773,10.742,6.8359
-2.832,3.8574,0.92773,1.5137,-0.39063,0.68359,4.3945,6.1035,1.5625,4.834,2.3926,5.3711,4.1016,7.5684,2.1484,4.9316,4.2969,6.0059,-0.87891,-0.83008,-0.73242,-3.8086,1.9531,0.48828,-1.9531
4.4922,10.156,8.6914,7.2266,6.0547,6.25,10.547,11.328,7.5195,8.4473,7.6172,9.5703,9.9609,11.035,7.1777,6.1035,7.4219,8.3984,2.1973,1.1719,1.0254,-2.0996,6.8359,4.8828,2.9297
6.543,10.205,9.7168,8.8867,8.7402,9.082,11.084,11.719,8.1055,9.082,8.5938,8.8867,10.107,10.107,7.4707,5.8594,5.0293,4.834,1.416,-0.53711,-1.9043,-4.7852,2.4414,6.3477,-2.9297
3.6621,10.889,7.5195,7.0313,5.0781,4.2969,7.373,11.279,4.541,6.8359,2.8809,3.3691,-1.8066,6.1035,3.418,2.7344,1.2207,-0.68359,-3.9063,-4.8828,-7.7148,-12.988,7.3242,3.9063,7.3242
7.1777,14.063,11.719,8.8379,6.6406,5.2246,9.668,12.109,7.5195,8.0078,6.0059,3.9551,-0.78125,7.0801,5.0293,2.8809,0.48828,-1.6113,-4.1992,-6.6895,-10.498,-16.162,3.418,2.4414,-0.97656
2.832,10.889,7.3242,7.4219,1.416,0.92773,5.8105,9.2773,2.4414,4.248,-1.6113,-2.0996,-9.2773,4.7363,-0.68359,-0.048828,-4.541,-6.9824,-6.2988,-9.5215,-13.33,-17.627,0.97656,-0.48828,-5.3711
9.8633,13.281,12.354,11.816,7.7148,5.2246,10.156,12.207,8.252,8.4961,4.6387,2.5391,-1.2207,8.4473,5.8105,4.3457,1.8555,-0.14648,-0.097656,-2.7832,-5.5664,-9.8145,11.719,8.3008,-1.9531
2.9785,7.4219,5.3711,7.7637,2.7344,0.39063,5.2246,7.6172,2.4414,4.9805,0.14648,0.63477,-4.6387,6.1035,1.4648,1.9043,-1.709,-3.3691,-1.9043,-3.9551,-7.2754,-7.7637,-4.8828,-2.4414,-10.742
8.3008,7.8125,10.791,8.3008,6.4453,0.87891,9.7656,8.0566,7.373,4.9316,4.0039,-0.048828,-0.48828,6.9824,6.1035,1.6113,2.3438,1.1719,3.7598,2.3926,0.24414,1.5625,3.9063,0.97656,-4.3945
14.453,11.914,16.162,12.695,11.572,6.1523,11.768,10.4,11.084,9.082,8.8867,4.6387,5.6641,10.205,10.352,6.25,7.1289,6.2012,7.6172,6.9824,4.7852,7.5195,8.7891,7.3242,0.48828
16.309,16.699,18.799,16.846,13.867,11.426,10.059,12.842,11.963,13.623,11.084,9.2773,7.1777,10.205,8.8867,9.4238,9.7656,9.668,5.5664,7.1777,6.6406,5.0781,9.2773,9.7656,0.97656
18.701,19.287,19.727,18.701,14.893,14.307,11.475,14.453,11.963,14.648,11.133,10.938,6.8848,11.133,9.3262,10.645,9.8145,9.2285,5.4688,6.0547,4.834,3.418,11.23,5.8594,8.3008
18.408,17.578,19.238,16.797,14.111,11.182,11.426,11.865,10.986,11.572,10.547,8.4961,6.9336,8.1055,7.3242,6.6895,6.7871,6.4941,0.87891,1.9043,1.3672,-1.2695,10.742,13.184,-2.9297
8.2031,10.84,9.7168,8.0078,4.0527,4.7852,1.5137,4.4434,0.73242,3.3691,0.39063,2.0996,-0.24414,-1.8066,-3.8574,-2.0996,-0.58594,0.39063,-7.9102,-6.1523,-6.0547,-8.3984,6.8359,2.4414,-3.418
6.4453,9.2773,7.373,6.4941,2.0508,2.1484,3.3203,2.6367,-0.29297,0.68359,-0.63477,1.8555,2.9785,-1.709,-3.2715,-3.0762,-0.87891,1.3184,-6.6406,-6.0059,-4.7852,-5.7617,2.9297,-0.97656,-9.2773
7.7637,7.666,6.543,5.6641,2.7344,2.2461,5.0781,3.125,-0.24414,0.78125,-0.83008,0.68359,-2.4902,1.0742,-2.7832,-1.3184,-0.048828,1.2207,-4.3457,-4.7852,-3.9551,-4.541,2.4414,4.3945,-6.3477
0.097656,-1.3672,-3.1738,-4.1016,-5.4688,-6.1523,-2.9297,-6.5918,-10.156,-10.645,-10.4,-8.6426,-7.7148,-8.7402,-11.133,-12.744,-10.107,-8.8867,-14.795,-15.674,-14.746,-15.869,0.48828,0.48828,-8.3008
1.0742,-1.3672,-3.6621,-3.0273,-5.7129,-4.541,-5.2734,-6.6895,-11.035,-9.7656,-11.475,-7.959,-7.1777,-9.375,-12.695,-13.135,-11.768,-9.3262,-16.26,-16.65,-14.795,-19.189,-1.9531,-0.97656,-11.719
6.25,0,2.832,-0.87891,0.14648,-3.418,-1.0742,-4.1992,-4.834,-6.7383,-5.5664,-5.2734,-2.3926,-6.1523,-5.6641,-9.4238,-5.0293,-2.6855,-9.9121,-9.668,-7.4219,-12.402,1.4648,2.4414,-3.418
6.2988,-2.002,1.9043,-0.83008,1.3184,-0.24414,-1.5625,-4.0039,-3.2715,-6.2012,-2.5391,-2.6855,0.58594,-3.5645,-2.9785,-6.3477,-3.5156,-1.709,-8.0078,-6.7383,-4.1504,-8.0078,-8.3008,-1.9531,-13.672
2.0508,-3.6621,-2.1484,-3.9551,-3.2715,-2.0996,-2.7832,-4.1504,-6.7383,-8.3008,-6.7871,-5.5664,-3.2715,-3.0762,-6.0547,-7.1289,-5.4199,-1.7578,-8.252,-6.9824,-4.4922,-6.1523,-6.3477,-8.7891,-20.02
-1.6113,-6.2012,-5.2734,-10.547,-7.8613,-7.4707,-2.1484,-6.0547,-8.8379,-13.916,-9.3262,-8.0078,-3.125,-4.834,-6.6895,-10.059,-7.5684,-3.9551,-8.9844,-8.5938,-5.957,-5.4199,-0.48828,-3.9063,-11.719
-6.0059,-8.0566,-7.9102,-13.77,-10.4,-10.205,-1.2207,-5.8105,-9.3262,-14.6,-10.693,-8.1543,-3.2715,-4.248,-5.8105,-9.668,-8.252,-5.6641,-8.3008,-7.4219,-4.9316,-2.7832,-0.48828,-1.9531,-17.09
-5.0293,-7.0313,-7.959,-13.818,-9.4727,-9.082,1.5137,-4.2969,-8.6426,-14.453,-11.475,-11.23,-5.7617,-3.4668,-6.1035,-10.547,-9.3262,-7.959,-6.2988,-6.3477,-5.8105,-1.8066,12.207,4.8828,-3.418
-4.6387,-8.3984,-8.6426,-13.965,-10.547,-10.4,0.048828,-4.9805,-10.254,-15.674,-13.428,-14.014,-7.1289,-4.6387,-7.1777,-11.963,-14.355,-14.697,-9.8633,-10.547,-11.67,-9.0332,10.742,10.742,-4.3945
1.123,-0.39063,-1.5625,-2.3926,-2.7832,-1.0742,5.2734,3.6621,-2.1484,-3.5645,-5.8105,-6.7383,-2.6367,4.6875,-0.3418,-1.6113,-4.3457,-6.7871,-0.24414,-0.78125,-2.9785,0.83008,4.8828,13.672,2.4414
2.5391,1.0254,1.123,-0.39063,-0.53711,0.29297,6.1035,4.1504,-0.53711,-0.78125,-4.3945,-6.4941,-3.9551,5.6152,1.123,-0.097656,-2.5879,-5.6641,1.1719,1.2695,-1.709,3.4668,5.8594,9.2773,0.48828
4.3945,-1.3672,1.8066,-1.2207,0.78125,-1.5625,4.1992,0.92773,-0.097656,-2.0996,-2.4902,-7.4707,-4.1504,1.6602,1.5137,-1.0742,-4.0039,-6.6406,-0.63477,-0.43945,-2.2949,2.3926,0,8.7891,-13.672
4.3945,1.3672,3.4668,0.29297,2.8809,-0.24414,5.8105,2.5391,1.6602,0.14648,0.83008,-3.7109,-0.83008,1.4648,3.7598,1.6602,1.6113,0.39063,2.6855,4.3457,3.2227,7.5684,-6.8359,1.9531,-7.3242
-2.7832,-4.7852,-3.9551,-7.9102,-4.7852,-6.3965,-1.416,-5.7129,-5.9082,-9.1797,-5.4199,-6.4941,-2.6855,-7.373,-4.7852,-5.5176,-4.834,-2.7832,-6.2988,-3.7598,-2.6367,-0.19531,-1.9531,-8.3008,-16.602
-5.7617,-4.4434,-6.9336,-7.9102,-8.5449,-6.7871,-4.3945,-6.7383,-10.693,-10.547,-9.7168,-6.4941,-5.957,-9.5703,-10.791,-6.6406,-6.7383,-3.6621,-9.4238,-6.6406,-4.9805,-5.5176,1.9531,-2.4414,-11.719
-4.541,-3.3691,-6.8359,-6.8848,-7.2266,-3.125,-6.2988,-6.1035,-8.9844,-8.4961,-6.9336,-2.1484,0.43945,-10.01,-9.5215,-6.1035,-4.0527,0.63477,-9.9609,-6.3965,-3.9551,-7.0801,0,1.9531,0
-5.2734,-5.7129,-7.666,-5.9082,-6.8848,-2.5391,-7.9102,-6.6895,-10.4,-7.5195,-7.6172,0.39063,2.1484,-10.791,-11.133,-6.2012,-5.3223,-1.5137,-12.939,-9.082,-6.8359,-12.109,5.3711,-2.9297,-3.418
-2.0508,-3.9551,-5.5176,-4.1016,-5.2734,-0.3418,-7.4707,-6.9336,-9.8145,-6.3477,-6.3965,-0.048828,0.97656,-10.742,-11.133,-5.8105,-3.7598,0.29297,-11.963,-7.7637,-5.2246,-11.67,2.9297,-4.8828,-0.97656
2.7832,-0.78125,-2.7344,-0.43945,-2.4902,2.832,-4.1016,-3.418,-5.7129,-4.0527,-4.5898,1.5625,-0.19531,-6.8848,-7.666,-3.0762,-3.2715,0.53711,-8.5449,-6.1523,-4.5898,-9.6191,4.8828,6.3477,5.3711
4.1016,-0.48828,1.0254,0.29297,-1.1719,-0.97656,-1.9043,-3.9063,-4.9805,-4.2969,-4.4434,-2.0996,-2.9297,-6.0059,-7.0801,-4.1992,-2.5879,-0.43945,-7.8613,-6.2988,-4.7852,-8.1543,1.9531,0.97656,-0.48828
5.957,2.4902,2.1973,3.5156,0.19531,1.709,-0.29297,-1.6113,-3.8086,-2.4902,-3.418,-0.48828,-1.5625,-4.8828,-5.7617,-3.9063,-1.2207,0.73242,-5.957,-5.4688,-4.3457,-6.1035,7.3242,8.3008,4.8828
0.3418,-2.6855,-3.418,-0.63477,-2.9297,-0.48828,-4.4922,-5.8594,-8.0078,-6.1035,-5.7617,-2.1973,-3.2715,-7.0801,-8.7891,-6.2012,-6.0059,-4.4434,-10.01,-9.7656,-9.0332,-10.84,-0.48828,0,-2.4414
6.0547,2.0508,3.3691,3.4668,3.5156,1.709,2.2461,-0.87891,-0.48828,-0.048828,1.0742,0.29297,-1.0742,-2.2461,-1.709,-2.2461,1.5625,0.87891,-3.418,-1.9531,-1.3672,-2.5879,2.9297,-0.48828,0.97656
2.8809,-3.0762,-0.19531,-0.68359,-0.29297,-2.3438,-0.73242,-5.4199,-3.3203,-4.1992,-1.6113,-4.1016,-5.1758,-5.2246,-3.5645,-4.9316,-3.0762,-3.418,-5.0293,-4.1504,-4.248,-4.541,2.4414,-3.418,-10.254
-0.63477,-3.8574,-2.1484,-0.14648,-2.2461,-1.1719,-0.87891,-3.8574,-3.7109,-3.0273,-2.002,-2.5391,-5.4199,-1.5137,-1.8555,-1.5625,-1.4648,-1.9531,-1.7578,-0.92773,-1.9043,-0.78125,-1.4648,-6.3477,-8.3008
-3.5156,-7.8125,-5.5664,-6.8848,-6.7383,-6.9824,-0.19531,-6.5918,-6.6895,-8.8379,-7.1777,-9.0332,-9.1797,-2.0996,-3.2715,-6.0059,-6.3477,-7.4219,-2.3926,-3.418,-4.9316,-1.709,6.3477,-1.9531,-0.48828
-9.5703,-8.9355,-11.377,-9.668,-14.404,-11.475,-3.1738,-5.5176,-11.865,-12.256,-16.162,-14.258,-15.625,-1.709,-8.5449,-8.4473,-13.916,-15.332,-5.6641,-7.5195,-10.938,-6.2012,0.97656,-8.3008,-8.3008
-11.572,-14.063,-13.77,-14.404,-16.211,-17.188,-5.2734,-11.182,-15.625,-19.092,-19.775,-21.973,-16.309,-7.373,-11.67,-16.992,-19.189,-21.826,-9.6191,-12.305,-17.383,-11.23,2.9297,-9.2773,-6.8359
-12.549,-13.086,-17.432,-14.063,-19.238,-16.26,-6.6406,-11.377,-19.678,-20.41,-23.779,-22.754,-22.021,-7.0313,-17.09,-17.627,-23.73,-27.197,-14.307,-17.139,-21.24,-14.16,0.97656,-1.4648,-7.3242
-13.818,-15.576,-18.848,-15.234,-18.457,-14.16,-10.01,-13.525,-21.533,-19.775,-21.875,-18.896,-15.967,-9.5703,-18.506,-16.846,-19.629,-20.85,-14.063,-14.648,-16.748,-10.596,-1.4648,-9.7656,-12.695
-12.012,-18.896,-17.139,-16.846,-16.064,-15.039,-10.059,-17.139,-20.117,-21.484,-17.871,-17.139,-10.645,-12.646,-16.846,-18.848,-17.578,-16.797,-14.844,-14.6,-15.234,-9.6191,4.3945,-5.8594,-4.3945
-7.2266,-11.23,-13.086,-9.082,-11.279,-5.5664,-9.7656,-11.279,-16.504,-13.916,-13.525,-7.9102,-7.3242,-9.082,-15.576,-12.939,-12.744,-10.889,-13.428,-12.109,-11.182,-9.1309,1.9531,-8.3008,-6.3477
-5.9082,-14.209,-11.377,-10.986,-9.2285,-7.959,-10.254,-14.795,-16.162,-16.113,-12.988,-9.7168,-7.6172,-14.697,-16.504,-17.188,-13.33,-10.254,-16.895,-15.674,-13.477,-12.988,1.9531,-2.4414,-1.4648
-7.0313,-11.865,-12.402,-9.2773,-11.133,-6.2988,-10.596,-13.33,-16.992,-14.941,-13.574,-7.8613,-6.543,-13.574,-18.164,-16.26,-14.795,-11.182,-19.092,-17.627,-15.283,-15.479,9.7656,0.48828,1.4648
-12.891,-15.479,-16.943,-13.77,-17.236,-12.939,-17.578,-18.75,-22.705,-21.143,-21.68,-16.455,-16.65,-21.094,-26.074,-23.096,-22.705,-19.922,-27.344,-26.27,-24.316,-25.488,4.3945,-6.3477,-4.3945
-8.1055,-12.793,-12.402,-13.916,-13.623,-11.816,-10.4,-15.918,-18.848,-20.85,-18.066,-15.186,-12.891,-18.604,-21.924,-23.193,-20.459,-18.408,-24.707,-23.975,-22.266,-23.975,12.207,4.3945,0.97656
-9.7656,-11.279,-11.914,-14.893,-13.33,-13.379,-7.0801,-13.086,-16.748,-20.166,-17.041,-15.137,-12.207,-17.383,-18.994,-21.777,-19.336,-17.09,-24.707,-22.705,-21.24,-24.121,2.4414,3.418,-2.4414
-13.037,-10.693,-15.186,-15.088,-16.992,-13.037,-10.498,-14.063,-20.898,-19.58,-19.775,-14.111,-15.186,-19.385,-22.705,-21.387,-18.604,-16.064,-25.439,-22.9,-21.973,-23.877,3.9063,2.4414,1.9531
-10.84,-11.035,-13.916,-16.064,-15.479,-11.426,-8.0566,-13.965,-19.189,-20.752,-16.504,-11.23,-6.9336,-17.09,-19.775,-19.727,-16.455,-11.865,-22.021,-18.652,-17.041,-18.848,8.3008,1.4648,0.48828
-12.012,-11.23,-13.574,-16.064,-14.6,-11.475,-6.7871,-12.109,-17.188,-19.727,-15.283,-9.8633,-6.543,-13.916,-16.992,-16.455,-12.744,-9.4238,-17.871,-15.381,-13.721,-15.137,9.2773,3.9063,6.8359
-12.939,-11.768,-15.576,-14.014,-15.527,-10.107,-11.279,-13.135,-18.799,-16.26,-15.674,-8.7402,-9.1309,-14.014,-17.969,-14.746,-13.721,-10.986,-18.213,-16.309,-14.941,-15.088,3.418,4.8828,6.3477
-10.84,-14.795,-14.795,-16.162,-14.258,-14.6,-11.963,-18.311,-19.287,-19.727,-15.625,-13.672,-8.8379,-17.822,-18.555,-19.287,-17.041,-15.137,-21.875,-20.459,-20.117,-21.094,3.418,0.97656,0.97656
-11.719,-13.232,-15.43,-12.988,-14.014,-11.328,-15.527,-15.674,-19.482,-15.967,-15.527,-10.84,-9.082,-15.625,-17.627,-15.43,-14.355,-13.379,-18.848,-17.285,-17.92,-17.676,7.8125,4.8828,0.48828
-6.8359,-9.0332,-10.449,-5.8594,-9.6191,-9.1797,-12.012,-11.475,-12.695,-10.107,-10.889,-9.2773,-6.3965,-10.156,-11.377,-9.4727,-10.547,-10.693,-12.939,-11.67,-13.184,-10.84,5.8594,5.8594,2.4414
-3.3691,-9.5703,-9.0332,-5.2246,-7.666,-8.0566,-11.572,-13.77,-12.061,-10.498,-10.547,-10.986,-5.0781,-10.693,-10.4,-9.5703,-10.352,-10.84,-11.23,-9.6191,-11.572,-8.9355,7.8125,7.3242,7.3242
-3.9063,-10.84,-8.6914,-7.1289,-6.8848,-7.8613,-9.9121,-13.574,-10.059,-9.7656,-8.5938,-10.986,-2.4414,-9.8633,-6.9824,-8.0078,-9.9121,-12.109,-7.9102,-7.0313,-9.2773,-5.1758,8.3008,6.8359,9.7656
-6.0547,-10.84,-9.3262,-6.2988,-6.1523,-6.4453,-7.959,-10.254,-7.373,-6.543,-7.8613,-10.742,-4.6875,-5.3711,-3.1738,-4.541,-8.9844,-12.305,-3.5156,-4.1504,-7.7637,-2.6855,6.8359,2.9297,16.602
-7.9102,-13.867,-11.768,-9.8633,-6.0059,-4.7363,-8.4473,-12.256,-11.279,-9.082,-9.0332,-10.791,-5.4688,-6.6895,-5.9082,-7.7148,-9.9609,-13.379,-6.3965,-5.8594,-9.1309,-4.7363,2.4414,-1.4648,13.184
-13.477,-16.65,-16.553,-13.135,-11.719,-8.7402,-10.352,-14.6,-15.43,-12.793,-11.621,-11.475,-9.668,-7.7637,-10.156,-10.645,-13.477,-15.137,-8.5449,-9.668,-12.305,-7.8613,0.97656,1.4648,6.8359
-14.063,-17.09,-17.139,-13.867,-12.598,-10.254,-11.67,-15.625,-17.627,-14.404,-12.939,-11.865,-11.865,-9.7656,-13.721,-12.5,-13.818,-15.479,-12.158,-12.793,-13.281,-9.8633,4.8828,0.97656,8.3008
-15.283,-17.236,-17.969,-14.6,-13.965,-9.6191,-15.186,-16.65,-18.994,-14.551,-13.916,-9.9121,-12.988,-11.279,-15.674,-13.672,-14.307,-14.893,-14.551,-14.404,-14.404,-11.768,0,-4.8828,1.9531
-13.379,-13.33,-14.6,-10.449,-11.182,-7.7637,-12.939,-11.963,-14.16,-10.205,-9.7168,-5.5176,-10.986,-7.8125,-12.061,-9.6191,-9.9121,-10.84,-12.402,-11.719,-11.523,-13.281,-2.4414,0.48828,-5.3711
-13.33,-11.963,-12.109,-9.2285,-8.8379,-6.7871,-12.451,-10.01,-11.572,-6.7871,-7.4219,-3.9551,-9.4238,-6.4941,-9.2773,-7.4219,-6.0547,-6.8848,-10.742,-8.3984,-8.3496,-10.107,4.3945,-2.4414,1.4648
-7.6172,-8.7402,-7.0313,-6.25,-5.1758,-5.0781,-9.0332,-9.0332,-6.6895,-5.5176,-3.7598,-3.0762,-5.3223,-5.7129,-5.127,-4.9805,-5.2246,-5.9082,-8.7402,-5.6641,-6.2012,-7.3242,10.254,0.48828,2.4414
-6.0547,-6.0547,-5.2734,-3.7598,-3.5645,-2.8809,-9.0332,-7.5195,-5.7129,-3.5645,-4.0039,-3.2715,-9.1309,-5.4688,-5.3223,-3.1738,-3.0762,-5.5176,-6.1523,-3.0273,-4.8828,-4.4434,0.48828,1.4648,0
0.43945,2.002,1.9531,3.7598,1.7578,3.9063,-4.0039,-0.24414,0.58594,3.4668,2.0508,2.002,-2.7344,0.68359,0.78125,3.4668,1.9531,-1.0254,-0.83008,1.5625,-0.68359,-0.14648,12.207,6.3477,14.16
6.0059,4.834,7.959,7.959,6.4941,6.3477,0.19531,2.2949,6.0059,6.0059,5.7129,4.1504,2.9785,1.6113,5.4688,6.1523,4.6387,0.68359,1.9043,4.5898,2.2461,3.125,7.8125,7.8125,7.8125
6.0059,9.1797,8.9844,10.059,7.3242,7.8125,2.4414,5.7129,6.6895,8.3496,6.7383,5.957,2.002,3.2227,5.4688,7.2266,6.9824,3.5156,3.6621,7.373,5.1758,5.9082,8.7891,6.3477,6.3477
1.2695,3.9551,5.5664,4.2969,2.2949,1.0742,1.4648,1.123,4.7363,4.0039,3.8086,1.0254,-2.5391,-0.19531,4.0527,4.5898,3.1738,0.73242,1.0254,4.3945,3.125,4.6875,8.7891,3.9063,7.3242
0.48828,4.7363,4.4434,4.541,0.97656,0.68359,1.3672,2.7344,3.4668,4.1992,2.7832,1.4648,-1.8555,1.0742,3.5156,5.7617,4.8828,1.9531,3.6621,5.6641,4.3945,7.2266,4.8828,1.4648,0
-8.8867,-3.7598,-5.3711,-5.3223,-7.3242,-8.1055,-3.0273,-5.2734,-5.3223,-5.0293,-5.3711,-6.2012,-9.1309,-4.834,-4.1504,-2.9785,-3.3203,-5.127,-2.0996,-1.2695,-2.2461,1.5137,-0.97656,-13.184,-7.3242
-10.547,-2.0508,-5.6152,-2.7832,-7.7637,-6.6895,-4.1992,-3.2715,-6.6406,-2.5879,-6.1523,-4.5898,-12.354,-2.6855,-4.7852,-2.3438,-4.9805,-8.0078,-3.9551,-3.418,-4.9805,-1.4648,-0.48828,-10.742,-14.16
-7.9102,-1.1719,-4.5898,-2.002,-6.0547,-6.1523,-4.2969,-4.6875,-6.543,-3.5156,-6.7383,-7.3242,-12.012,-4.9316,-6.2012,-5.6641,-7.3242,-10.352,-5.6152,-5.8594,-7.9102,-5.127,7.8125,-7.3242,-6.3477
-10.84,-7.8125,-9.8633,-8.0078,-10.498,-10.742,-7.666,-10.547,-11.621,-10.254,-12.744,-14.648,-15.234,-9.082,-10.449,-12.158,-14.893,-17.383,-10.205,-12.5,-15.088,-11.133,-0.48828,-10.254,-8.3008
-12.549,-6.4941,-9.7168,-8.3984,-13.184,-13.477,-7.5684,-10.303,-12.305,-12.305,-15.625,-17.725,-17.92,-8.1055,-12.744,-12.988,-16.699,-20.85,-12.061,-14.746,-17.725,-13.232,7.8125,-6.3477,-1.4648
-15.039,-10.791,-12.646,-10.791,-16.895,-18.066,-12.256,-14.551,-15.283,-14.697,-20.166,-22.363,-25.049,-11.621,-15.771,-17.676,-21.68,-25.049,-15.039,-18.262,-20.41,-16.064,9.2773,-7.8125,-6.3477
-17.188,-15.674,-15.234,-16.504,-19.189,-24.023,-11.865,-18.457,-16.846,-19.434,-21.24,-26.318,-22.559,-16.064,-16.016,-20.068,-23.145,-26.318,-15.625,-18.555,-20.02,-14.99,4.8828,-11.719,-10.254
-15.137,-10.303,-11.67,-11.719,-15.967,-18.75,-7.9102,-10.352,-11.23,-12.061,-16.748,-19.678,-18.213,-7.0801,-9.2285,-10.107,-12.695,-16.357,-5.6152,-6.1523,-7.6172,-3.5156,2.4414,-8.3008,-8.3008
-15.186,-9.4727,-9.2773,-11.23,-15.137,-18.018,-5.2734,-8.4473,-7.4219,-9.1797,-12.744,-18.213,-17.236,-3.0762,-4.0039,-5.7129,-9.4727,-13.965,-2.1973,-2.8809,-5.8594,-2.7344,3.418,-7.8125,-8.3008
-14.746,-5.0781,-7.9102,-7.959,-12.695,-13.184,-2.9785,-4.4922,-5.127,-6.1035,-10.645,-13.184,-14.99,-0.3418,-1.7578,-1.5137,-5.0781,-8.4961,0.43945,0.097656,-2.002,-1.8555,0.48828,-10.742,-8.7891
-9.2285,0.097656,-3.3203,-2.002,-4.8828,-1.3672,1.8555,3.125,0.97656,2.4414,-1.5625,0.53711,-0.73242,8.8867,4.834,6.4453,4.3457,1.6113,6.5918,7.2266,6.1035,4.4922,8.7891,-1.4648,0.48828
-11.572,-1.7578,-4.541,-3.2227,-6.4453,-5.0293,1.8555,2.6367,1.123,0.68359,-1.6602,0.53711,-4.2969,7.0313,4.834,5.957,3.1738,0.97656,6.25,7.5195,6.2988,5.4199,1.9531,-6.8359,-4.3945
-17.188,-5.0781,-9.1309,-8.3008,-10.889,-9.4238,-1.3672,-0.87891,-4.6387,-4.3457,-7.4219,-3.2715,-8.3496,2.3926,-0.97656,-0.39063,-0.92773,-3.0273,1.5137,3.1738,2.002,3.5156,4.8828,-8.3008,-0.97656
-18.652,-7.3242,-11.279,-9.6191,-14.111,-11.23,-3.0762,-3.2715,-7.0313,-7.1289,-9.6191,-4.6875,-10.303,1.123,-3.6621,-1.8066,-3.7598,-5.2246,-0.68359,1.2695,-0.83008,2.6367,-0.97656,-7.3242,-2.4414
-16.455,-10.303,-10.352,-11.719,-12.207,-14.16,-3.5645,-7.5684,-6.8359,-10.4,-8.7891,-9.7656,-13.135,-2.8809,-4.4434,-4.541,-5.2734,-6.8359,-1.709,1.123,-0.39063,5.2734,1.4648,-9.2773,-12.207
-14.453,-8.9355,-9.082,-11.182,-9.8145,-10.791,-1.2207,-6.5918,-6.2988,-9.2285,-6.8848,-6.1035,-6.4941,-2.6367,-3.3203,-3.6621,-3.0273,-4.1504,0.24414,2.2461,1.2207,7.8613,6.8359,-5.3711,-2.9297
-14.453,-2.9297,-8.9355,-6.8848,-10.156,-5.5176,4.0527,0.19531,-5.4199,-4.7852,-6.6406,-1.2695,-3.8086,4.3945,-1.9531,1.2207,-0.97656,-1.3672,4.0039,4.248,3.125,10.547,4.8828,-11.23,-4.3945
-12.158,-8.6914,-9.7168,-11.914,-8.0566,-7.2266,2.1973,-6.2988,-6.6895,-10.645,-7.2754,-5.2246,-2.4902,-2.4414,-3.1738,-5.2734,-2.832,-2.6367,1.416,2.6367,0.43945,8.8867,2.4414,-7.8125,-11.719
-14.014,-9.1309,-12.109,-11.182,-11.572,-8.2031,-0.3418,-8.1543,-11.133,-11.914,-10.254,-5.0781,-5.957,-3.8574,-8.7402,-7.6172,-6.8359,-5.0293,-3.9063,-3.1738,-4.0527,2.6367,5.3711,-2.9297,-3.9063
-18.213,-9.2285,-14.746,-12.207,-16.406,-13.086,-1.123,-7.5684,-13.281,-13.965,-14.502,-10.059,-12.451,-4.1504,-12.012,-10.4,-10.059,-9.1309,-6.7871,-7.2754,-8.0566,-2.5391,7.3242,-4.8828,-6.3477
-14.063,-8.0078,-10.791,-12.109,-14.307,-13.867,-0.43945,-8.4961,-11.328,-14.453,-14.111,-11.768,-11.621,-6.5918,-11.719,-12.988,-12.012,-12.451,-10.498,-10.889,-12.354,-9.8633,0.97656,-1.9531,-0.97656
-13.428,-3.3691,-9.7168,-8.4473,-13.623,-12.158,-0.3418,-5.2246,-10.889,-10.4,-13.672,-10.156,-13.965,-5.0293,-12.207,-10.205,-12.5,-14.453,-12.402,-11.816,-14.111,-14.209,2.4414,-2.9297,-6.8359
-14.355,-5.0293,-9.668,-9.6191,-13.574,-13.33,-1.8066,-6.3477,-11.133,-11.279,-13.672,-11.816,-15.576,-7.2266,-12.207,-10.596,-12.988,-16.357,-13.232,-13.574,-15.43,-18.359,2.4414,-9.2773,-4.8828
-7.373,2.1973,-4.3457,-3.125,-8.1543,-5.4199,3.5156,-0.63477,-5.4199,-4.7363,-7.5195,-5.0293,-8.5938,-0.048828,-5.8594,-3.418,-7.4219,-9.668,-5.6152,-6.5918,-9.2285,-10.303,7.8125,-1.4648,-9.2773
-8.3984,-2.4902,-6.4941,-6.6406,-9.7656,-8.3984,1.9043,-4.2969,-7.7637,-9.1309,-9.1797,-8.3008,-8.1055,-3.5156,-6.6895,-6.8359,-7.9102,-9.7656,-5.4199,-6.8359,-9.4238,-8.4473,7.8125,0.97656,-6.3477
-9.2773,-6.2012,-9.6191,-9.4238,-10.352,-7.4219,-3.0273,-8.4473,-11.426,-10.645,-10.889,-8.2031,-8.3984,-6.0547,-9.1309,-8.1543,-9.9609,-10.645,-7.666,-8.1543,-10.791,-8.6426,1.4648,-0.97656,-7.3242
-12.451,-13.135,-13.33,-15.283,-14.795,-17.725,-8.4961,-15.869,-15.039,-16.26,-14.844,-16.309,-13.086,-11.523,-11.621,-13.477,-15.186,-15.869,-12.109,-12.646,-14.355,-11.865,7.8125,1.4648,-0.97656
-14.355,-12.158,-15.234,-14.648,-17.383,-17.236,-12.549,-15.625,-16.748,-16.162,-18.896,-17.871,-15.576,-11.914,-14.746,-13.379,-15.381,-16.699,-11.426,-12.354,-13.77,-10.645,1.4648,2.4414,-0.97656
-17.334,-16.357,-17.383,-19.287,-20.654,-22.559,-18.213,-20.557,-18.262,-19.824,-20.557,-22.705,-19.092,-15.381,-15.039,-16.064,-18.896,-21.289,-13.086,-13.672,-15.527,-13.135,-3.9063,-7.8125,-9.2773
-6.5918,-5.5664,-4.4922,-8.0566,-9.1309,-12.305,-3.9551,-7.5195,-4.9805,-7.7148,-8.5449,-12.5,-7.2266,-1.8066,-1.8555,-2.8809,-6.1523,-9.9121,-0.97656,-0.68359,-3.9063,-0.68359,6.3477,2.9297,2.9297
-3.8086,-4.0039,-2.4414,-5.7129,-4.8828,-6.8848,-4.0039,-4.3457,-1.9531,-4.541,-4.9805,-7.9102,-4.0039,0.92773,1.2207,-0.48828,-3.3691,-7.4219,1.8555,1.0742,-2.2949,0.83008,5.3711,0.48828,0.97656
1.0254,3.7109,5.0781,2.5879,2.9297,1.4648,4.7852,5.6152,6.6406,5.0781,4.541,4.1016,5.1758,10.986,9.8633,9.1309,5.3711,2.2461,11.035,10.01,6.543,11.621,8.3008,10.254,-0.97656
-1.9531,5.4199,2.2461,3.6133,1.5137,3.2227,3.3203,7.0801,3.5156,5.5176,3.3691,6.4453,2.5879,10.596,6.9336,7.7637,5.5176,2.6367,8.6426,7.9102,5.2734,9.9609,4.3945,-5.3711,-4.8828
3.3691,7.4219,7.0801,6.1035,6.9824,6.2988,9.1309,8.4961,8.252,6.7871,9.1309,9.4727,8.6426,10.4,9.7168,7.5684,7.2754,5.6641,8.5449,7.5195,5.7129,9.1309,4.8828,-3.418,-1.9531
2.5879,8.9355,6.0547,8.3008,5.7129,6.3965,7.9102,8.7402,6.0059,6.6406,6.543,9.3262,6.3477,9.1797,5.7129,6.4453,6.1523,5.1758,5.4688,4.9316,3.5156,6.7871,8.3008,0,-1.9531
4.248,10.156,8.2031,9.9609,6.4453,5.6641,7.5684,9.0332,7.373,8.0078,6.5918,7.5684,1.8555,7.666,5.5176,5.2246,4.7852,4.0039,3.6133,2.7832,1.8555,4.3457,7.3242,2.4414,1.9531
7.5684,12.012,10.742,14.355,10.498,10.693,6.3965,9.8145,8.9355,12.451,9.9609,12.207,5.6152,6.4453,6.2988,7.8125,7.5684,7.959,3.1738,3.7598,4.8828,4.248,4.8828,-1.4648,-2.4414
8.3008,12.305,10.742,16.699,13.281,14.453,3.6621,9.5215,8.6914,15.283,12.646,15.283,7.373,5.0293,6.3477,9.6191,12.109,12.305,4.541,6.543,8.0566,6.543,4.8828,0.48828,0.48828
10.01,11.133,10.352,17.725,13.086,13.33,2.2461,8.9355,10.156,16.406,13.281,14.6,4.1504,4.9316,6.9824,10.84,9.668,10.352,3.6621,5.957,7.7637,6.2012,0.97656,1.4648,-0.48828
8.6426,9.9121,9.4238,18.018,12.305,12.256,-0.78125,6.25,7.2754,15.283,12.207,13.77,4.9316,2.3926,3.9551,9.668,10.498,12.012,3.0273,5.7129,9.1797,6.9824,1.4648,2.9297,1.4648
9.5703,12.158,12.451,17.285,11.426,9.6191,1.6602,7.0801,9.1797,15.039,11.963,11.426,3.125,2.7832,4.248,7.5195,9.3262,9.7656,2.1973,4.9316,7.959,6.8359,4.8828,4.3945,5.3711
11.279,12.988,15.186,16.211,11.621,5.3223,4.4434,6.4941,10.84,13.672,10.547,7.1289,1.6602,0.48828,5.2246,4.8828,5.5176,5.127,0.58594,2.1973,4.3457,2.5391,2.9297,2.9297,1.4648
14.355,15.576,18.701,20.166,15.723,9.6191,5.5176,6.8848,11.865,16.016,14.16,9.1797,4.248,0.24414,5.4199,6.1523,9.4727,8.1055,2.8809,6.0059,8.3496,7.5684,2.9297,0.48828,0.97656
17.773,16.553,21.533,23.779,18.262,12.158,3.4668,6.1523,13.477,19.141,16.699,11.084,4.2969,-0.097656,6.1035,9.3262,9.8145,7.959,2.832,6.4941,7.666,6.9824,11.23,6.8359,-1.4648
19.092,15.039,22.754,24.902,21.631,14.063,2.6367,4.1504,15.088,20.703,18.945,12.061,6.6895,-0.48828,8.1055,10.498,12.207,8.2031,4.5898,7.2754,7.1777,5.1758,8.7891,7.8125,-2.4414
18.848,13.037,21.191,26.709,22.852,17.041,0.048828,3.2715,14.502,22.363,21.045,14.6,6.9824,0.58594,9.7168,13.428,13.623,10.449,6.8359,8.8867,8.1055,7.2266,1.4648,2.9297,-8.7891
21.24,13.818,23.877,28.809,26.563,19.482,3.1738,7.4707,19.385,27.93,24.268,17.627,11.963,7.7637,17.627,19.385,17.725,13.184,13.672,15.43,12.891,12.891,3.418,2.4414,-4.3945
23.926,16.26,27.344,30.469,29.736,20.801,10.303,14.258,26.025,32.031,27.979,18.359,15.381,16.797,27.246,25.586,23.828,17.529,23.975,24.707,20.654,22.559,3.418,6.8359,4.8828
18.164,12.158,21.631,26.123,23.438,17.041,8.252,12.305,22.949,28.027,23.633,14.697,12.158,17.92,25.195,23.486,20.703,13.965,22.363,22.412,19.141,19.58,-1.4648,-1.4648,2.4414
11.475,5.9082,15.869,16.846,15.234,9.2285,6.1035,6.9336,16.211,19.092,14.551,4.4434,4.541,13.232,18.799,16.309,14.209,7.0313,18.555,18.506,16.357,18.457,1.9531,-8.3008,0.97656
10.303,6.4453,14.746,15.186,14.063,9.0332,8.3008,9.8633,16.943,17.139,13.281,3.9551,5.2734,16.895,20.313,17.383,14.551,7.2266,22.021,20.313,18.115,22.021,0,-7.8125,6.3477
1.1719,-0.048828,5.3223,6.4941,5.5664,3.5156,5.6641,5.3223,8.2031,8.4473,4.1016,-1.123,-0.48828,11.523,11.914,7.8613,4.2969,-0.92773,11.523,9.5703,7.0801,7.4707,-4.3945,-10.742,-1.9531
2.5879,1.0742,5.5176,4.541,6.0547,4.0527,9.668,5.5176,6.543,5.1758,3.6621,0.83008,1.5625,10.254,9.8633,4.5898,4.7363,2.002,9.1797,7.373,5.0781,3.8086,8.7891,-3.9063,-1.4648
-0.73242,0.19531,1.7578,2.002,2.6367,1.8066,6.9824,3.6621,3.3203,2.5879,1.9531,2.1484,1.123,9.7168,7.0801,4.0039,2.832,2.0996,7.2754,5.4688,3.3203,3.2227,2.4414,-10.742,-7.8125
-0.58594,0.68359,1.8555,2.4414,3.418,4.4922,5.7129,3.3691,3.0762,2.9785,3.7109,6.1523,5.0781,8.9844,6.7871,4.834,5.4199,5.6641,7.666,6.2012,5.4199,4.7363,0.48828,-13.672,-5.3711
2.3438,6.0547,4.541,6.6406,5.7129,10.107,9.375,9.2285,5.0781,9.0332,8.0566,13.867,9.7168,14.014,8.7891,10.205,10.938,11.182,10.205,10.4,10.156,9.1797,9.2773,-0.48828,8.7891
-2.002,-0.78125,2.6855,0.097656,2.1973,2.0996,5.7617,3.7109,3.7598,3.6133,5.8105,6.9336,5.7129,5.6641,6.6895,4.2969,5.5176,6.4453,4.3945,5.6152,5.7129,4.541,0.97656,-11.719,-3.418
4.7363,7.3242,10.352,9.0332,10.107,11.572,8.0566,11.23,10.596,14.404,13.623,16.748,14.16,11.816,12.061,12.598,15.479,15.82,10.791,13.135,14.648,11.23,10.254,-2.9297,6.8359
-0.14648,4.8828,4.8828,7.1289,4.1992,10.352,2.3926,6.543,5.127,10.84,8.6914,14.746,10.938,8.1055,5.1758,9.2773,9.7168,11.182,3.2715,5.8105,7.5684,2.9785,5.8594,-3.9063,2.9297
1.0254,5.6641,7.1289,7.959,5.3223,8.2031,3.5156,6.6895,5.5176,10.4,7.7637,12.646,10.645,5.957,3.9551,6.8359,8.5449,10.645,0.73242,2.5879,5.5664,0.29297,5.8594,2.4414,4.8828
7.959,8.2031,11.523,9.6191,9.6191,10.449,6.5918,6.8359,8.7402,8.7891,10.059,13.477,15.234,3.5645,4.0039,2.8809,8.1055,11.621,-1.0742,0.048828,4.1992,-1.9531,14.648,5.3711,4.8828
10.498,9.7656,12.598,9.5703,11.035,12.012,6.7383,5.8594,8.1543,8.1543,10.596,15.723,19.775,1.2695,2.7344,1.5625,8.1543,12.402,-3.125,-1.709,2.7832,-2.9297,12.207,7.3242,6.3477
5.4688,6.543,6.9824,3.2227,5.4199,5.5664,3.4668,0.48828,2.0996,2.6367,4.834,9.2285,13.916,-6.3477,-3.7109,-5.4688,2.5391,7.3242,-7.8125,-6.0547,-0.78125,-3.7598,12.207,6.3477,8.3008
0.78125,3.8086,2.8809,-0.97656,-0.97656,0.19531,0.048828,-2.7344,-3.2227,-3.8574,-1.416,1.8555,3.8086,-9.9609,-8.7402,-9.3262,-3.7598,0.097656,-10.84,-10.205,-4.4434,-5.127,1.9531,-0.97656,2.9297
3.9063,5.2246,3.8086,2.6855,3.5645,4.7363,1.2207,-0.78125,-2.1973,-0.87891,2.8809,6.1523,5.8105,-8.7402,-6.8848,-5.5176,1.2695,5.1758,-7.5684,-4.3945,0.97656,0.24414,10.254,6.8359,6.3477
6.7383,4.3945,5.5176,2.4902,7.373,7.2266,1.4648,-2.832,-0.24414,1.2695,7.373,8.9844,9.8633,-8.8379,-3.7109,-2.832,4.8828,8.1543,-4.248,-1.416,4.6387,2.4414,7.8125,3.418,7.8125
5.8105,3.8574,4.0039,5.127,6.7383,7.666,-2.0508,-4.9316,-2.9297,2.1484,6.3477,8.4473,7.8125,-10.791,-5.9082,-3.1738,1.4648,4.4922,-7.1289,-4.7852,0.39063,-2.7832,5.8594,-0.97656,3.9063
7.373,-0.58594,3.6621,3.5645,8.1055,6.3965,-3.418,-9.0332,-5.3223,-0.39063,5.8594,6.5918,7.666,-12.646,-6.7871,-5.9082,2.4902,4.9316,-7.0313,-3.0762,1.6113,-2.5391,6.8359,0.97656,8.7891
7.9102,-2.6367,2.7344,1.9531,5.6152,3.1738,-3.3691,-9.2773,-4.7852,-2.1484,3.7109,3.3691,6.0547,-9.7656,-4.4434,-5.4199,-0.29297,2.8809,-3.5645,-2.5391,0.3418,-1.1719,4.8828,1.4648,5.3711
0.83008,-6.25,-3.418,-1.1719,-2.1973,-3.0273,-8.252,-10.352,-9.7656,-5.7129,-5.3223,-4.4922,-2.832,-8.5938,-7.8125,-6.9824,-6.4453,-5.3711,-4.2969,-5.7129,-4.4434,-3.1738,1.9531,0.97656,3.9063
-4.3945,-13.184,-8.8379,-6.2988,-8.5938,-6.543,-14.99,-14.99,-13.867,-10.449,-11.084,-8.252,-6.25,-10.107,-10.4,-8.9355,-8.3496,-8.5449,-4.5898,-6.1035,-5.3223,-2.832,2.4414,-4.3945,3.418
0.87891,-10.986,-3.5156,-4.0527,-2.002,-4.3457,-7.373,-9.8145,-5.3223,-5.8105,-3.6133,-5.5664,0.39063,-1.9043,0.53711,-1.709,-2.002,-3.0273,5.0781,4.3457,4.834,9.8633,7.3242,5.3711,7.8125
1.2695,-7.6172,-2.2949,-3.6621,-1.6602,-2.3438,-4.834,-5.5176,-4.1016,-3.6621,-3.7598,-4.6875,1.2695,2.5391,2.5391,0.3418,0.048828,-1.0254,8.0566,6.8848,6.1523,11.816,6.8359,3.9063,9.7656
4.0527,-0.14648,0.43945,2.832,1.4648,5.1758,-1.416,-0.048828,-1.9043,1.0254,-0.048828,2.7344,4.7852,7.2266,3.9063,5.9082,4.248,4.7363,10.059,8.4473,8.7402,12.158,9.2773,-0.97656,7.3242
9.7656,4.248,6.6895,6.0059,6.2012,6.3477,5.3711,4.6387,3.6133,3.9063,3.9551,3.4668,6.25,10.645,8.0078,6.9824,6.6895,6.0547,13.721,10.547,9.7168,13.33,5.8594,0.48828,8.3008
14.16,9.5215,12.695,8.5938,10.107,6.2988,13.525,10.498,10.059,7.0801,8.9844,5.7617,8.8379,15.967,14.746,10.059,9.9121,7.8125,17.334,13.525,11.328,15.869,4.3945,2.9297,6.3477
6.1523,5.3223,6.9336,4.0527,3.125,0.048828,7.5195,7.5684,5.4688,2.9785,3.2715,1.9043,2.0508,12.598,9.5215,5.8594,4.0039,2.7832,12.012,7.5195,6.1523,9.3262,6.8359,-1.4648,-2.4414
6.1523,5.4199,9.082,3.1738,5.127,-0.48828,9.9121,8.7891,8.0566,4.4434,5.0781,1.8555,2.9297,12.451,11.816,5.3223,6.2012,3.6133,13.428,8.9844,7.1289,9.6191,4.3945,-0.97656,-1.9531
3.5645,0.78125,5.127,0.39063,2.2461,-0.3418,4.0527,4.541,4.1016,0.83008,2.832,1.4648,5.0781,7.666,6.4941,1.0742,2.4414,2.3926,6.4453,2.6855,2.5391,2.0996,1.9531,6.3477,5.3711
5.6641,4.834,7.5195,5.2734,7.1777,8.4961,8.1055,7.9102,6.7871,4.2969,7.5684,9.7168,15.039,9.668,7.4219,3.418,6.7871,9.375,6.25,4.3945,7.0313,4.2969,11.23,11.23,9.7656
1.8555,0.14648,2.6367,0.048828,4.1992,5.8105,2.9297,0.87891,-0.43945,-1.9531,2.3438,5.6152,11.279,0.3418,-1.8555,-5.3711,-0.29297,3.125,-4.9316,-6.9824,-3.2227,-9.5215,3.9063,2.4414,6.3477
2.3926,-0.24414,2.2461,-0.48828,2.6855,1.4648,1.4648,-1.8555,-2.3926,-4.1992,0.048828,2.5391,5.2734,-5.9082,-6.543,-10.059,-5.7129,-0.58594,-13.477,-14.6,-8.7891,-18.994,3.9063,-1.9531,6.3477
-0.97656,1.6113,-1.416,1.5137,-0.24414,2.7832,-3.125,-2.4902,-7.666,-3.5156,-4.3457,3.0762,1.5137,-10.986,-13.965,-13.037,-7.666,-2.0508,-20.264,-19.775,-13.574,-24.316,5.3711,1.9531,12.207
-2.3438,0.97656,-0.87891,1.5625,-2.1973,-0.048828,-4.1016,-4.0527,-6.6895,-2.002,-2.8809,4.0527,1.8555,-10.4,-13.721,-10.742,-7.2754,-0.87891,-20.02,-18.75,-12.598,-22.412,2.4414,-0.97656,2.4414
-2.4902,2.0508,0.97656,3.0762,-2.7344,-0.83008,-3.7109,-3.125,-5.7617,-0.29297,-3.0762,2.9297,0.048828,-8.7891,-11.963,-8.7402,-5.4199,-0.58594,-17.236,-15.918,-10.938,-18.018,8.7891,-6.3477,2.4414
-1.3672,1.7578,1.9531,2.0508,-1.6113,-1.709,-2.8809,-3.2227,-4.248,-0.48828,-1.5137,2.6367,0.19531,-9.3262,-10.4,-8.5938,-5.4199,-0.87891,-14.697,-14.453,-9.8145,-14.99,11.719,0,8.3008
3.2715,5.6152,8.8379,5.8594,4.2969,3.0762,3.5645,1.0742,2.832,4.7363,5.4199,7.3242,7.1777,-4.7363,-1.709,-2.9785,0.58594,4.3945,-6.3477,-6.1035,-2.4414,-5.6152,9.2773,1.4648,5.3711
5.4688,8.252,9.8145,8.8867,4.834,4.9805,2.0508,2.3926,3.4668,6.543,4.7852,6.3965,4.1016,-4.0527,-2.0508,-1.3672,1.3184,2.2461,-5.3711,-5.3711,-2.9785,-6.8359,14.16,2.4414,5.3711
6.9824,5.8594,10.84,8.8379,6.2988,3.5645,1.6602,1.6113,4.7852,8.2031,6.543,5.1758,2.0996,-2.8809,1.9043,2.2949,2.0508,2.0996,-3.2227,-1.9043,-0.58594,-3.5156,7.8125,0,0.48828
7.373,5.8105,10.791,10.352,6.9336,5.8105,0.19531,1.2207,5.127,10.352,7.4219,5.5664,0.97656,-2.9785,2.2461,5.8105,4.7363,4.1992,-2.3926,0.87891,2.002,-2.6367,6.8359,2.4414,8.3008
0.87891,0.3418,5.4199,5.127,3.2227,0.39063,-1.9531,-2.2461,2.2461,6.543,3.8086,0.58594,-4.6875,-5.1758,0.97656,3.0762,2.832,0.097656,-3.8086,-1.0254,-0.48828,-5.0293,1.9531,-5.8594,2.4414
1.2695,-3.125,5.0293,5.6641,6.6406,4.1016,-0.63477,-2.9785,3.6133,7.9102,7.6172,3.9551,2.1484,-2.2949,5.3223,5.1758,5.127,3.2227,1.123,2.6855,2.7832,-1.0254,2.4414,-2.9297,0.97656
-0.048828,-4.0527,4.2969,5.3223,8.3008,5.4199,0.24414,-0.68359,4.9805,9.668,10.156,7.2754,5.6152,2.8809,8.8379,7.9102,8.9355,7.4219,7.3242,7.959,7.5684,4.8828,-0.48828,-4.3945,8.7891
-6.6895,-5.7617,-0.73242,1.8555,1.2207,0,-1.6602,-2.4414,0.87891,5.7617,4.0527,2.0508,-3.9551,3.9063,5.8105,4.5898,3.6621,0.78125,6.0059,3.9551,2.2461,1.709,5.8594,-1.9531,-0.48828
-3.9063,-4.7363,1.3184,2.2461,0.83008,-0.63477,-0.24414,-1.709,1.123,3.8574,2.8809,1.6602,-0.14648,5.3223,5.3711,3.8086,3.7109,3.3691,8.3496,5.6152,4.1016,5.1758,0,-5.8594,-0.48828
-2.9785,-4.0527,1.2207,1.3184,-0.048828,-2.4902,-1.3184,-2.1973,-0.97656,2.4902,2.0508,1.8066,2.3926,4.2969,3.7598,1.4648,2.7344,3.4668,4.9805,2.8809,3.2715,1.4648,0.48828,-2.9297,-7.3242
-6.4453,-3.8086,-1.5625,-0.68359,-5.4199,-6.543,-0.97656,-0.73242,-3.8574,-0.19531,-3.3691,-1.1719,-1.6113,4.1016,-0.24414,-1.5625,-2.1973,-2.2949,0.048828,-2.0508,-2.2949,-5.8105,-1.4648,-9.2773,-9.7656
-6.543,-3.7109,-3.4668,-1.3672,-6.7383,-6.4941,-3.5156,-2.1973,-7.6172,-3.5645,-6.8359,-3.6133,-6.2988,-0.83008,-5.4199,-5.5176,-5.2246,-4.6387,-4.4434,-5.3711,-4.7363,-7.1289,0.97656,-5.8594,-5.8594
-0.97656,0.14648,-0.097656,4.1992,-1.0254,1.4648,-0.29297,0.97656,-3.9063,0.63477,-0.53711,4.1016,1.9531,3.1738,-1.9531,-1.1719,-0.3418,1.1719,-1.8555,-2.8809,-1.5137,-5.6152,2.4414,-4.3945,-4.3945
-0.68359,-1.1719,-0.14648,5.3223,1.6113,3.0273,0.87891,2.5391,-2.5391,1.5625,0.24414,2.8809,-1.2695,4.1016,-1.3184,-0.97656,-1.0742,-0.53711,-1.9531,-4.0527,-3.3691,-5.6641,-3.9063,-3.9063,-0.48828
10.986,4.3457,10.303,12.793,13.33,12.744,6.8848,6.3965,6.25,7.5684,10.352,9.4727,6.7383,6.2012,5.8105,1.3184,5.4688,6.1035,1.5625,-0.39063,0.14648,-3.418,1.9531,0.97656,9.2773
14.6,7.9102,13.232,18.799,17.041,18.945,6.0547,8.8867,7.2754,11.719,13.428,15.527,11.084,7.5684,6.1035,4.7363,6.9336,7.959,0.92773,-1.123,1.0254,-4.1504,4.8828,0.97656,9.2773
13.77,10.205,13.281,20.068,15.527,17.627,4.9316,10.303,7.6172,14.502,12.158,16.455,11.67,8.0078,5.127,6.5918,8.3008,9.6191,0.97656,0.14648,1.9043,-4.0527,-0.97656,2.4414,7.8125
16.064,6.0059,13.33,16.016,13.818,11.426,4.541,3.4668,5.9082,7.6172,10.791,11.67,14.648,0.97656,3.6621,1.2207,5.127,7.5684,-2.3926,-2.002,1.0254,-5.4199,2.4414,5.3711,7.3242
10.449,4.4434,9.2285,11.328,5.8594,5.2246,0.68359,0.58594,-0.3418,3.2227,3.0273,6.1523,6.4453,-0.97656,-2.832,-1.3672,1.709,4.4922,-4.2969,-2.7344,-0.048828,-3.9063,9.7656,6.3477,2.9297
4.7363,-2.2461,4.1016,1.7578,-0.24414,-3.8574,-1.123,-5.3223,-4.3457,-4.0527,-1.709,-1.5137,1.5625,-6.5918,-5.2734,-8.0078,-2.832,-1.3184,-5.6152,-5.127,-3.7598,-5.0293,3.418,-1.9531,4.3945
-1.8555,-6.7871,-3.125,-4.4434,-5.957,-8.5938,-4.1016,-8.6426,-10.156,-9.2285,-7.8613,-6.7871,-3.7598,-10.107,-9.9609,-12.402,-10.449,-8.252,-9.8633,-10.4,-10.791,-9.3262,3.418,-4.8828,-1.4648
-0.97656,-3.7598,-3.6133,-1.8555,-4.1504,-2.4414,-6.3477,-6.9824,-11.377,-7.2754,-8.5938,-6.1035,-5.1758,-10.596,-12.354,-12.061,-11.182,-9.7168,-10.742,-11.67,-12.744,-10.986,4.8828,-2.4414,5.8594
-1.3672,-9.5703,-5.4199,-6.2012,-5.0293,-7.4219,-6.3965,-11.67,-12.891,-13.379,-10.254,-11.475,-8.2031,-13.867,-13.721,-17.676,-16.406,-15.967,-13.965,-15.576,-17.92,-13.916,-2.9297,-3.418,3.418
-5.6152,-9.7656,-10.059,-6.2988,-10.693,-9.8145,-9.8633,-12.305,-16.992,-15.527,-16.309,-14.746,-13.037,-15.039,-18.652,-19.58,-20.85,-20.508,-16.406,-19.385,-21.631,-16.455,0,-0.97656,7.8125
-4.541,-13.721,-10.449,-11.377,-12.012,-14.307,-9.4727,-16.846,-17.383,-18.75,-16.699,-17.92,-13.184,-18.018,-18.359,-21.777,-21.094,-20.508,-16.211,-19.287,-21.631,-15.039,-2.4414,2.9297,14.16
-8.3496,-16.553,-14.795,-11.621,-14.209,-13.623,-11.523,-16.26,-18.945,-17.676,-17.773,-14.795,-11.816,-14.014,-16.65,-17.627,-19.189,-18.213,-12.598,-15.479,-16.797,-10.107,-0.97656,1.4648,5.3711
-18.164,-24.463,-23.193,-21.484,-22.168,-21.924,-14.844,-22.021,-26.025,-24.756,-24.658,-22.412,-20.166,-18.066,-20.752,-23.584,-23.682,-22.51,-14.746,-16.943,-18.164,-10.791,3.9063,-1.9531,0.97656
-22.412,-25.781,-26.074,-22.314,-24.561,-19.727,-15.479,-22.119,-28.076,-24.756,-24.854,-19.092,-18.359,-15.43,-22.559,-21.289,-22.363,-19.971,-14.648,-17.676,-17.725,-12.842,-3.418,-9.2773,-3.418
-17.285,-23.779,-20.459,-18.652,-18.018,-14.746,-10.303,-18.359,-20.85,-21.289,-18.506,-14.014,-8.1055,-12.158,-16.699,-18.457,-16.797,-13.037,-11.084,-12.891,-12.988,-8.5938,-3.418,-9.2773,-1.9531
-23.291,-24.854,-26.025,-22.852,-23.877,-16.553,-15.137,-20.361,-27.148,-23.389,-24.561,-15.283,-10.986,-14.111,-22.217,-21.191,-21.338,-15.967,-15.137,-17.139,-15.967,-11.328,-4.8828,-12.207,-1.4648
-21.045,-20.459,-21.68,-20.02,-22.461,-17.627,-11.084,-16.016,-22.656,-21.289,-22.803,-14.893,-10.059,-12.451,-19.287,-19.238,-19.58,-15.234,-14.551,-15.869,-14.404,-10.205,-5.3711,-12.207,-0.97656
-15.771,-12.5,-13.77,-16.699,-18.555,-16.553,-3.3203,-7.5195,-13.916,-15.234,-17.725,-11.963,-7.666,-6.3965,-10.742,-13.379,-12.451,-9.5215,-6.7383,-8.5449,-7.4219,-3.125,0.48828,-5.3711,8.3008
-8.7891,-5.7617,-7.1777,-10.547,-12.451,-10.986,2.7344,-1.416,-6.8359,-9.6191,-11.182,-8.2031,-3.8574,-0.43945,-3.8086,-7.373,-8.0566,-7.3242,-1.6113,-4.5898,-4.7363,0,-0.48828,-10.254,2.4414
-4.4434,-6.543,-5.0293,-9.5215,-7.5195,-7.1289,0.48828,-3.3203,-6.6895,-9.7656,-7.666,-6.9824,-3.8574,-2.1484,-4.3457,-7.5684,-6.1035,-5.6641,-1.6113,-3.5645,-2.832,0.29297,2.9297,2.4414,5.3711
-0.19531,-3.4668,-0.53711,-4.3457,-0.63477,1.2695,5.8105,1.416,-0.97656,-4.8828,-0.53711,-0.53711,2.002,3.5156,2.2949,-2.2949,0.39063,0.83008,6.0547,3.1738,3.3691,6.3965,0.97656,3.418,4.3945
1.123,-3.2715,-0.63477,-2.0508,2.4414,3.1738,6.7383,2.3926,-1.2207,-2.832,0.39063,0.43945,0.97656,4.1016,1.3672,-3.7109,-2.0996,-1.9043,1.6602,-1.8555,-2.0996,-1.3184,0.97656,4.8828,2.4414
4.1504,-2.6855,0.78125,0.58594,4.9316,7.4219,4.0039,1.4648,-1.2207,-0.92773,2.9297,3.5156,7.0801,1.8555,0.92773,-2.832,0.19531,1.2207,1.9531,0.24414,-0.29297,0.29297,1.4648,7.3242,5.8594
-4.5898,-9.2773,-8.5938,-5.0781,-4.3457,0.048828,-2.2949,-4.9316,-8.7402,-6.8359,-5.4199,-1.416,1.0742,-2.7832,-5.2246,-5.957,-6.1523,-3.9063,-3.125,-4.3945,-5.1758,-3.3203,-0.97656,1.4648,3.9063
-6.9824,-11.768,-9.7168,-8.5449,-7.3242,-6.1035,-1.9531,-8.2031,-8.5449,-10.059,-7.8125,-8.0566,-3.9551,-6.2988,-6.3965,-7.7148,-7.8125,-6.6895,-4.1992,-5.6152,-6.0059,-3.3203,1.9531,1.4648,4.3945
-9.0332,-14.551,-10.938,-12.012,-11.719,-11.377,-6.8359,-13.037,-12.012,-13.867,-11.963,-12.305,-5.6152,-13.379,-11.279,-12.891,-12.451,-10.254,-11.182,-11.035,-10.352,-8.4961,5.8594,1.9531,7.3242
-11.084,-11.182,-11.719,-10.156,-11.963,-8.8379,-7.2754,-10.059,-12.402,-10.938,-12.549,-8.3984,-4.7363,-12.5,-11.133,-9.4727,-10.84,-7.7637,-10.01,-9.2773,-8.8867,-7.373,5.3711,-0.97656,5.8594
-4.4922,-3.2227,-4.1016,-1.9531,-4.541,-1.416,-4.5898,-3.5645,-5.8594,-3.0762,-5.9082,-3.2227,-2.9785,-7.2266,-6.7383,-4.1992,-3.6621,-1.6113,-6.3477,-3.7598,-3.0273,-3.1738,6.3477,11.23,12.695
-5.5176,-4.4922,-5.9082,-3.5645,-7.4707,-4.5898,-8.3008,-8.1055,-9.8633,-6.9336,-9.5703,-7.4707,-8.6426,-12.061,-12.695,-9.8145,-10.645,-8.3008,-14.502,-11.963,-10.986,-11.768,4.3945,10.742,9.7656
-2.002,-4.4434,-4.541,-1.5137,-3.9551,-2.0508,-12.207,-10.4,-9.1309,-7.3242,-8.8867,-8.2031,-9.5703,-15.625,-13.916,-10.938,-10.791,-9.2773,-16.016,-14.014,-12.793,-16.113,-2.4414,8.3008,7.8125
7.1777,1.6602,4.0527,4.541,5.1758,4.8828,-4.6875,-6.0059,-1.1719,-0.19531,1.2207,-1.0742,-0.87891,-9.8145,-5.3711,-4.7363,-2.9785,-2.0996,-9.082,-7.0313,-5.5176,-8.3984,-0.97656,10.742,10.742
7.1777,-0.73242,4.1992,6.8848,7.5684,6.2012,-6.4453,-7.4219,0.097656,3.9551,4.9805,2.9785,2.7344,-7.8125,-2.1484,-0.097656,0.43945,0.87891,-6.1523,-3.125,-2.2949,-4.248,-3.9063,4.8828,3.418
0.87891,-7.666,-3.3203,2.9297,2.4414,3.8574,-13.477,-12.695,-7.3242,-1.0742,-0.14648,1.0742,-1.7578,-10.693,-6.8848,-3.6621,-2.0996,-1.6113,-7.0801,-5.2246,-4.7363,-5.6641,-6.3477,-0.97656,1.9531
-5.8105,-15.186,-10.791,-3.6133,-4.8828,-2.6855,-15.088,-16.406,-13.037,-6.2988,-6.0059,-4.541,-6.4941,-10.156,-9.082,-6.5918,-7.6172,-7.3242,-6.9336,-7.3242,-8.3008,-6.1035,-10.254,0.97656,-0.97656
-6.0059,-14.355,-8.9844,-3.2715,-3.2715,-1.7578,-8.3008,-10.01,-8.5449,-4.7363,-3.418,-2.1484,-0.19531,-2.4414,-2.832,-2.832,-2.4902,-1.8555,1.7578,-1.0742,-3.4668,-0.29297,1.4648,4.3945,3.9063
-1.7578,-10.303,-5.8105,-1.416,-0.24414,0.39063,-1.2695,-3.8574,-3.7598,-3.2227,-0.48828,0.097656,3.0273,4.4922,2.2949,-1.0254,-1.2207,-1.7578,4.8828,1.1719,-2.4414,-0.19531,1.9531,17.09,9.7656
-5.127,-7.1777,-6.7871,-0.19531,-3.2227,-1.123,0.63477,1.8555,-3.2715,-1.5137,-4.834,-2.2949,-4.1992,8.1543,1.4648,-0.3418,-3.9063,-6.1035,3.2715,-1.8555,-6.2988,-4.6387,-7.3242,9.2773,7.3242
1.5137,2.2949,2.832,4.248,3.7598,2.8809,11.279,10.84,5.6152,4.0527,1.9043,0.92773,1.1719,14.404,9.5703,4.3457,3.418,1.709,10.645,6.4453,1.8555,3.9063,9.7656,21.973,16.602
4.9316,7.1777,6.7871,9.9121,7.3242,5.5664,15.771,15.381,10.352,8.7402,6.9824,5.2246,2.2461,18.457,12.939,9.2773,6.7383,4.541,13.281,9.5703,4.8828,5.7129,10.742,18.555,9.2773
2.1484,9.1797,5.6641,7.959,3.8086,3.8086,16.406,16.309,8.252,8.252,3.4668,2.832,-4.2969,17.139,10.449,8.2031,4.8828,2.002,11.426,7.6172,3.3691,4.9316,3.418,11.719,-0.97656
-1.9531,1.0254,0.48828,0.92773,-0.78125,-2.5391,9.9609,7.4707,1.5137,-0.29297,-0.78125,-3.7109,-7.9102,9.2285,4.834,0.048828,-0.97656,-3.7598,5.6641,0.53711,-3.1738,0,-1.4648,1.9531,-5.3711
-2.1484,-0.24414,-2.4414,1.8555,-1.416,0.14648,5.6152,4.3945,-2.2461,-0.3418,-2.5391,-1.3184,-7.666,5.5664,-0.39063,-0.97656,-3.3691,-5.6152,0.43945,-3.5156,-6.0059,-4.3457,2.9297,1.9531,-5.8594
5.4688,1.1719,3.9063,3.6133,6.25,4.2969,8.4473,4.9316,1.8555,1.9531,3.2227,2.1484,0.48828,4.248,3.5645,-1.0742,1.0742,-1.709,1.8066,-0.3418,-2.7832,-1.6113,1.4648,8.3008,1.9531
-0.73242,-2.3438,-3.2227,0.68359,-1.1719,2.0996,-1.4648,-1.6602,-6.1523,-3.5156,-3.9063,-0.68359,-5.3223,-1.0742,-5.6641,-5.1758,-5.8594,-6.6895,-7.2266,-6.8848,-8.9844,-6.9824,0.48828,5.8594,-9.2773
5.5176,-4.0527,1.6113,2.6855,4.5898,3.5645,-2.4414,-5.6152,-3.7598,-2.6855,1.123,0.68359,4.9316,-5.8105,-5.0781,-5.9082,-2.1973,-0.78125,-8.5938,-7.2754,-5.1758,-6.4453,-1.4648,6.8359,0.97656
12.5,6.9336,10.254,13.477,12.012,12.256,3.6621,4.2969,4.1016,6.9824,7.959,9.3262,10.107,3.0762,1.123,1.7578,5.5664,6.8359,0.73242,0.97656,3.1738,3.0762,0.48828,11.23,6.3477
9.5215,5.8594,8.5449,10.303,7.5684,5.2246,1.3184,2.4414,1.9043,2.4902,2.832,1.8555,1.709,-1.3672,-2.3926,-4.1992,-1.8066,-1.5137,-6.0547,-5.7617,-4.1992,-5.6641,1.9531,6.3477,-1.4648
12.842,8.3496,13.184,11.328,9.9121,5.5664,5.1758,3.3691,4.6875,2.6367,4.7852,2.002,3.7109,-1.0254,-0.097656,-4.6387,0.39063,1.5137,-3.4668,-3.7598,-2.2461,-2.9297,4.3945,10.254,5.3711
14.258,9.1797,13.428,11.426,9.6191,5.4688,3.8574,2.5879,3.8086,1.9043,4.7363,2.002,4.7852,-2.9297,-2.002,-6.0547,-1.3672,1.0742,-4.9316,-5.4199,-3.5645,-3.7598,0.97656,5.3711,4.8828
10.84,10.547,10.645,11.963,4.4922,2.7344,-0.87891,0.39063,-1.123,0.97656,-1.9531,-2.0996,-8.1055,-7.666,-8.6426,-7.373,-5.4688,-5.0781,-10.352,-9.7656,-8.6914,-8.8867,0.48828,2.9297,-0.48828
12.549,4.7363,11.035,9.8145,7.4219,2.5879,-3.1738,-4.1504,-1.5137,-1.2207,1.8066,-1.8066,-4.4434,-11.23,-7.4219,-8.6426,-2.7832,-2.7344,-10.645,-8.7891,-7.2266,-9.082,2.9297,-3.418,7.8125
9.7656,5.3223,6.9336,12.109,5.9082,5.8105,-5.9082,-3.2227,-2.6367,3.418,2.0508,3.6133,-2.2461,-7.373,-6.3477,-1.9531,-1.0254,-1.1719,-8.8379,-6.8848,-4.0527,-5.127,-1.9531,1.9531,0
9.6191,-0.63477,5.957,7.373,7.7637,3.9063,-7.959,-9.8145,-3.7109,0.48828,3.3691,1.4648,1.4648,-13.672,-6.7383,-5.7617,-0.58594,-0.53711,-10.449,-7.2754,-3.4668,-5.957,-3.9063,-3.9063,0
4.3945,-8.252,-1.3184,1.4648,2.5879,0.53711,-13.574,-16.455,-9.7168,-4.9316,-0.29297,-1.8555,-0.78125,-17.529,-11.035,-7.6172,-3.6621,-2.3438,-12.5,-9.1309,-4.6387,-6.543,-5.8594,-4.8828,-5.3711
1.3672,-5.5664,-4.3945,2.6855,0.24414,4.0039,-10.4,-11.865,-9.8633,-1.709,-2.9785,0.19531,-0.87891,-9.3262,-8.5938,-2.002,-1.1719,-0.63477,-5.7129,-4.248,-1.6113,-0.92773,4.8828,-0.48828,3.418
-3.2715,-9.4238,-9.3262,-4.5898,-4.4434,-0.63477,-9.668,-13.037,-12.793,-6.0059,-7.2266,-4.3457,-4.834,-8.7891,-9.2285,-4.6387,-5.0293,-5.0293,-6.2988,-5.7129,-3.1738,-1.709,-3.9063,-4.8828,-4.3945
-7.8125,-13.77,-13.477,-8.0078,-7.666,-2.4414,-10.742,-13.281,-12.939,-6.8359,-7.7148,-3.0273,-2.6855,-6.6406,-7.3242,-2.9297,-3.8086,-2.9297,-3.5156,-2.2949,-0.83008,-0.63477,-3.9063,-8.7891,-2.4414
-5.6152,-14.893,-11.182,-10.596,-4.6875,-4.7363,-2.5879,-9.9121,-8.0078,-6.7871,-4.4434,-4.0527,-0.24414,-1.6602,0.87891,-0.87891,0.43945,-0.24414,5.3223,4.8828,3.6621,6.9824,-7.3242,-9.7656,-0.97656
-8.4473,-14.063,-12.305,-10.205,-7.666,-6.2988,-0.097656,-5.6641,-7.6172,-6.4453,-5.2734,-3.2715,-3.5645,4.7363,2.7832,2.3438,0.097656,-0.78125,9.4727,7.6172,5.2734,10.449,-1.4648,-7.8125,0
-5.4688,-10.254,-8.6426,-6.9336,-2.9785,-1.6113,4.0039,-0.048828,-3.125,-2.5879,0.53711,3.2227,3.2227,10.889,7.8125,7.4707,7.1289,7.4219,16.65,14.453,11.084,17.48,-1.4648,-6.3477,3.9063
-12.695,-16.895,-14.551,-15.43,-9.5703,-9.4238,0.14648,-6.0059,-9.8145,-10.205,-5.8105,-4.4434,-1.3184,4.4434,1.4648,-1.1719,0.14648,-0.14648,9.2773,6.7871,3.2227,9.7656,-6.3477,-7.3242,1.4648
-8.2031,-9.7656,-9.8145,-9.668,-5.4199,-4.6387,4.9805,-0.43945,-5.2246,-5.5176,-2.0996,-0.83008,-0.14648,8.1055,4.4922,2.2461,2.8809,2.1484,11.719,9.4727,6.5918,12.354,-4.8828,-1.9531,-0.48828
-1.0254,-2.9785,-1.123,-3.5156,2.7832,2.3438,8.4473,4.8828,1.5625,1.123,4.3945,4.8828,6.8848,10.449,9.082,6.6406,8.4961,7.3242,13.33,12.988,10.889,12.598,-1.9531,1.4648,1.4648
0.97656,-2.6367,-0.39063,-3.125,1.0254,-0.14648,6.3477,3.418,0.73242,-0.58594,2.4902,-0.3418,2.0508,9.082,7.4707,4.6875,3.5645,1.7578,9.3262,7.8613,5.2734,7.4219,-0.97656,1.9531,-0.97656
3.7109,1.3184,3.0762,0.097656,2.832,-0.19531,9.5215,5.3711,3.1738,0.87891,2.1484,-1.2695,-0.24414,9.668,7.1289,4.3457,4.3457,1.9043,9.4238,7.9102,5.5176,9.1309,0,7.8125,0.97656
5.3711,1.5137,4.9805,1.6602,4.7363,3.2227,6.8848,5.2246,4.6875,3.1738,5.4199,3.418,3.5645,7.6172,7.0313,6.1523,7.5195,6.7871,9.2773,8.1055,7.666,9.1797,-1.4648,7.3242,8.7891
3.3203,2.002,3.8086,-0.29297,3.2227,-0.58594,6.0547,4.834,5.0781,2.0508,4.6875,3.0273,3.0762,6.1035,7.2754,5.2734,6.0059,5.3223,8.6914,7.3242,7.5684,9.9121,6.3477,3.9063,3.418
-1.0254,0.83008,1.416,-1.8066,0.048828,-2.6855,3.2715,3.3203,1.2695,0.39063,2.1484,1.1719,0.48828,3.3203,3.3203,2.5391,5.7617,4.7363,6.9336,6.4453,7.8125,11.23,5.3711,3.9063,7.8125
2.0508,1.6113,3.5645,0,1.8555,-0.78125,1.5625,1.3672,1.5625,0.68359,4.541,2.832,1.5625,1.5625,2.0508,2.5879,5.7129,4.8828,4.5898,5.8105,7.0313,7.9102,6.8359,5.8594,3.418
3.7598,5.9082,4.541,5.5176,2.9297,4.9805,-0.43945,5.3223,1.2207,5.3711,2.6367,5.2246,-1.2207,4.3457,0.78125,5.3711,6.25,5.0781,3.5645,5.127,6.6895,7.4219,3.9063,12.207,7.3242
11.67,10.352,11.621,11.035,9.375,8.9355,2.4902,7.2266,5.7617,8.4961,6.9336,6.4941,3.4668,3.8574,3.5645,6.3477,7.1289,6.0059,3.418,5.0781,6.0059,4.6387,11.719,17.578,7.3242
15.918,12.256,14.795,17.529,14.063,15.381,3.2227,8.9355,8.3496,14.404,9.668,10.84,8.1543,6.5918,5.957,10.547,8.9355,7.4219,4.7363,7.5684,7.8613,7.4707,7.3242,20.02,14.648
8.0566,5.3223,7.7148,10.254,7.2754,7.3242,-2.3438,2.7832,2.4902,8.0078,2.7832,3.7109,2.0508,0,0.87891,4.1504,4.1992,1.7578,0.92773,3.4668,3.7109,4.0527,4.8828,12.695,10.742
4.541,2.2461,6.1035,7.5195,4.0039,1.9531,-2.3926,1.6602,3.6621,6.9336,2.1973,0.29297,-0.097656,0.73242,2.8809,4.248,2.4902,-0.58594,2.8809,3.9063,3.0762,3.9551,2.9297,6.8359,0.48828
2.1973,1.0742,4.6875,6.1035,1.6602,0.24414,-2.1484,0.48828,2.4414,6.6895,1.0254,-1.2695,-1.5625,1.1719,2.6367,6.1035,4.1016,0.48828,4.3457,4.9805,4.1016,4.8828,2.9297,4.8828,2.9297
-0.78125,-2.4414,1.8066,2.7832,-0.63477,-2.1973,-3.1738,-1.709,0.14648,5.3223,0.24414,-1.0254,-0.097656,-0.97656,1.6602,4.9316,2.832,0.097656,2.5879,2.6367,1.6602,0.73242,-1.4648,5.3711,11.719
-6.1035,-8.5938,-4.1016,-5.0293,-6.1523,-7.8125,-4.1992,-6.4941,-5.0293,-1.6113,-5.0781,-6.6895,-4.0039,-4.9316,-2.832,-2.0508,-4.9805,-7.7637,-4.2969,-4.9316,-7.5684,-8.4961,3.9063,0,3.418
-7.6172,-11.035,-6.9824,-7.3242,-7.959,-7.3242,-6.2988,-8.3984,-8.6426,-5.0781,-7.5195,-7.5195,-4.1016,-6.543,-5.4199,-4.1504,-5.5176,-8.252,-4.4922,-6.0547,-8.9355,-8.8867,0.48828,-2.9297,4.8828
-4.248,-11.67,-6.4941,-6.2988,-3.125,-4.5898,0.3418,-8.1543,-5.7617,-4.8828,-3.1738,-2.9785,1.4648,-3.0273,-1.123,-1.7578,-2.4902,-4.0527,-0.097656,-1.9043,-4.8828,-3.6621,0,-2.4414,0.97656
-7.666,-16.455,-11.182,-10.938,-7.9102,-9.375,-2.002,-11.328,-11.328,-10.303,-8.2031,-8.1055,-4.7363,-4.4434,-5.5664,-6.1523,-6.5918,-8.252,-1.709,-3.8574,-6.8848,-1.416,0.48828,-1.4648,4.8828
-0.97656,-11.084,-6.8848,-6.2012,-3.2715,-3.6621,1.2207,-8.3008,-8.6426,-8.6426,-4.6875,-2.9785,2.0996,-1.0742,-2.832,-4.3457,-2.0508,-2.3926,3.9551,1.7578,-1.2695,5.7129,9.2773,4.8828,3.9063
-6.2012,-9.2773,-10.938,-6.3477,-7.6172,-3.8086,-1.0742,-6.1523,-12.158,-7.2266,-7.8613,-1.1719,-1.5625,1.2207,-4.9316,-3.3203,-3.9551,-3.0273,3.1738,1.6602,1.0254,8.8379,2.4414,1.9531,2.9297
-6.9336,-8.7891,-10.84,-6.9824,-8.6914,-6.2988,-0.53711,-4.1016,-12.549,-8.252,-9.6191,-5.3223,-7.959,0.43945,-5.7129,-5.4199,-4.834,-5.7617,2.3926,1.0742,0.3418,9.9609,6.8359,4.3945,5.8594
-2.9297,-8.7891,-5.9082,-6.2012,-4.6875,-5.6152,2.6855,-5.7129,-8.0078,-8.8379,-5.0781,-5.2734,-1.9531,-0.58594,-2.6367,-4.7363,-3.1738,-2.3926,2.6855,2.4902,2.6367,11.426,7.8125,3.9063,12.695
-8.7891,-12.012,-10.986,-8.9355,-9.1797,-7.373,-3.0273,-7.373,-11.23,-10.742,-9.4727,-6.6895,-3.4668,-3.8574,-6.6895,-6.1523,-4.4922,-3.2715,-0.58594,0.048828,0.68359,7.959,2.9297,0.97656,8.7891
-6.4453,-7.4219,-6.3477,-3.8574,-5.7129,-5.127,1.7578,-0.19531,-4.834,-3.8086,-4.834,-1.9043,0.78125,4.1504,-0.39063,-0.19531,0.53711,0.92773,4.7852,4.1992,3.8086,9.0332,0.48828,2.4414,14.16
-8.3008,-8.8379,-7.8125,-6.543,-8.5938,-9.7168,1.1719,-1.6602,-6.9824,-5.5664,-7.7148,-5.3711,-4.541,1.6113,-2.3926,-3.5645,-4.248,-4.8828,0.78125,0.24414,-1.1719,3.418,6.8359,2.9297,1.4648
-7.959,-10.303,-8.3008,-9.8633,-7.8613,-13.037,1.3184,-4.3945,-6.8359,-8.7402,-7.2266,-9.5703,-7.0801,-1.0742,-2.2461,-6.8359,-4.541,-5.3711,-0.68359,-1.3184,-4.1016,-0.097656,1.9531,-0.97656,7.8125
-5.3711,-9.4238,-6.6406,-8.9844,-7.3242,-11.23,-1.1719,-5.1758,-5.957,-8.6426,-5.957,-8.4961,-4.1992,-2.832,-2.832,-6.9824,-5.5176,-6.1035,-2.4902,-4.1992,-5.4688,-3.125,1.9531,1.4648,8.3008
-9.3262,-12.891,-10.693,-12.939,-12.061,-15.869,-7.373,-10.645,-11.816,-12.158,-10.986,-13.037,-10.059,-8.5449,-9.2285,-10.205,-9.5703,-10.938,-8.3984,-8.0566,-8.6914,-5.2734,-2.9297,-0.97656,1.4648
-9.375,-9.8145,-11.621,-9.4727,-11.523,-9.4238,-11.572,-9.5215,-13.037,-7.8613,-10.303,-8.9844,-10.254,-7.7637,-10.498,-5.127,-7.2266,-10.059,-9.8145,-8.4473,-8.8867,-8.9844,1.9531,-0.97656,2.4414
-4.9316,-7.7148,-7.7637,-4.9805,-6.2988,-5.5664,-12.109,-7.5195,-8.9844,-3.7598,-6.3965,-6.3965,-8.4961,-7.5195,-8.1055,-2.2461,-6.3477,-9.7656,-9.4238,-7.5195,-8.2031,-8.3008,0.97656,3.9063,2.4414
-1.123,-6.543,-4.834,-1.709,-2.8809,-2.0996,-13.672,-8.6426,-8.6426,-1.8066,-4.8828,-5.3223,-6.4453,-10.303,-9.1309,-3.2227,-5.2734,-8.5449,-10.449,-7.4707,-8.9355,-10.352,9.2773,9.2773,15.137
-2.0996,-7.3242,-7.3242,-2.2949,-4.5898,-2.4414,-14.795,-10.205,-9.9121,-2.3438,-4.9805,-6.2012,-6.9336,-10.303,-9.3262,-1.5625,-5.3223,-9.1309,-8.3496,-6.4941,-7.959,-8.3496,3.9063,8.7891,10.742
-1.4648,-8.3984,-6.1523,-5.9082,-4.6875,-9.3262,-11.035,-12.598,-8.9844,-6.3477,-6.4941,-13.965,-9.0332,-12.305,-8.0078,-4.4922,-7.959,-12.891,-7.1289,-6.1035,-8.9844,-5.5176,5.3711,12.207,11.23
-8.6426,-14.209,-14.014,-12.891,-13.525,-17.529,-15.527,-20.508,-18.213,-15.088,-15.869,-22.51,-19.287,-18.945,-17.188,-13.916,-16.699,-21.68,-12.598,-14.111,-15.869,-11.865,0.48828,2.4414,9.7656
-13.232,-16.064,-18.018,-15.137,-15.527,-17.773,-15.625,-21.68,-19.824,-16.699,-16.748,-21.094,-16.064,-17.627,-16.895,-14.307,-16.797,-19.727,-13.525,-14.16,-15.332,-10.938,-5.3711,-1.4648,2.4414
-13.428,-14.404,-16.26,-15.137,-14.502,-15.771,-10.889,-16.113,-17.09,-12.158,-14.697,-16.016,-11.035,-12.061,-12.305,-9.1309,-11.133,-13.623,-8.5449,-8.7891,-9.0332,-5.3223,-5.8594,0.97656,4.8828
-10.498,-17.578,-15.967,-14.551,-10.645,-12.598,-8.9844,-16.797,-14.355,-11.621,-8.3984,-10.645,-4.8828,-12.012,-8.8379,-8.1543,-8.1543,-9.1309,-8.3496,-8.0566,-8.1543,-7.0801,-3.9063,-1.4648,2.9297
-6.2012,-13.135,-8.8867,-6.2012,-1.3184,-2.5391,-2.7344,-7.4219,-4.7852,-0.68359,2.4902,2.9297,4.0039,-0.29297,0.63477,3.3691,4.6875,5.0781,2.8809,3.7598,4.1504,3.4668,-2.9297,-6.3477,3.9063
-6.2012,-10.449,-6.6895,-2.2949,0.87891,2.4414,-3.125,-1.0254,-0.19531,4.9805,6.7383,9.0332,5.3711,5.7617,6.2012,9.4727,9.9609,9.2773,8.2031,9.1797,9.1309,7.1289,-4.8828,-3.418,8.7891
1.5137,-5.6152,0.53711,3.4668,9.7168,7.666,2.0996,3.5156,7.6172,10.645,14.16,13.77,13.037,9.8145,14.014,14.258,14.014,14.209,12.207,12.451,13.33,9.9609,-0.48828,-2.4414,11.719
4.0039,0.83008,4.5898,8.4473,12.451,10.791,2.3926,7.5195,9.9121,14.453,16.113,15.527,10.693,13.037,15.869,17.773,17.969,16.699,16.162,17.725,16.748,12.5,-0.97656,-1.9531,13.672
8.3984,6.543,9.9609,11.67,13.623,12.109,6.1035,11.279,13.965,15.332,17.188,16.211,12.891,15.82,18.652,18.604,17.725,17.334,17.48,18.701,17.041,12.451,-0.48828,6.3477,9.2773
8.3984,9.3262,10.352,11.768,10.107,11.035,2.7832,10.938,10.596,14.16,11.768,12.939,7.3242,13.623,12.793,16.455,14.502,13.184,12.451,13.525,12.793,4.3945,0,2.4414,11.719
9.6191,9.668,10.449,12.109,9.1309,9.9609,4.1016,12.207,11.133,13.77,11.719,13.477,6.8359,14.453,13.721,17.773,15.088,14.355,15.039,15.234,14.014,7.373,6.8359,7.3242,16.602
11.572,10.791,12.549,12.891,11.23,9.9121,7.3242,14.404,13.428,15.234,14.063,14.014,8.0078,16.357,17.188,18.652,15.625,13.379,16.65,16.309,14.063,8.0078,6.8359,18.555,20.508
13.867,12.793,14.355,16.943,14.209,13.33,8.4961,16.553,15.186,19.824,16.992,17.432,11.133,17.92,17.725,22.07,20.166,17.627,18.701,20.361,18.75,12.549,8.3008,15.137,17.578
6.9336,1.416,7.5684,6.9824,7.5684,2.2949,0.24414,4.5898,9.1797,9.6191,11.816,7.4219,3.5645,7.373,11.719,12.207,11.719,9.9121,11.67,12.061,10.693,6.4941,-1.4648,4.3945,10.742
8.7891,5.6641,8.3008,11.768,10.01,7.6172,1.8066,8.9844,10.205,14.502,12.207,9.7656,2.2949,11.768,12.549,16.992,14.746,11.621,16.162,16.016,14.6,14.209,10.254,10.254,9.7656
10.303,6.4453,10.889,14.453,12.061,8.1055,1.709,8.5449,12.207,15.576,14.6,9.4727,4.2969,10.645,13.818,15.869,14.941,10.596,15.039,15.723,14.063,14.014,2.4414,5.8594,10.742
12.012,9.668,13.184,19.482,16.211,14.209,1.5625,11.67,14.99,21.973,19.092,16.504,10.449,13.574,16.016,20.85,18.506,14.209,15.527,17.285,16.406,14.453,1.9531,0.97656,8.3008
15.576,11.816,17.529,19.873,19.971,14.844,8.1543,14.648,19.287,23.682,21.875,15.771,9.0332,15.137,19.482,21.729,20.215,14.697,18.115,20.264,18.604,18.604,12.207,1.9531,4.8828
14.16,8.8379,14.648,17.383,17.529,13.281,6.9824,10.986,17.188,20.752,20.264,13.428,8.5449,11.768,17.676,19.629,18.018,13.281,16.309,18.799,18.213,19.336,8.3008,9.7656,8.3008
11.914,7.1777,11.133,16.553,13.037,13.086,3.3691,7.6172,10.547,18.213,15.088,14.258,8.3496,9.1797,10.498,16.846,15.674,12.061,11.23,14.404,14.648,14.502,6.8359,9.7656,13.672
2.4902,-1.8066,0.63477,4.2969,2.832,3.125,-2.9785,-2.4902,0.14648,6.6895,6.1035,4.7852,1.0742,-1.1719,1.3672,5.9082,6.6406,4.3457,3.8574,7.1777,8.3984,11.084,0.48828,4.3945,12.695
-6.9336,-11.377,-9.9121,-7.9102,-7.7637,-7.1777,-7.6172,-12.793,-9.668,-6.4941,-4.6875,-5.957,-2.3438,-10.84,-6.8848,-4.4922,-4.1016,-4.1992,-3.7109,-1.0742,2.6855,5.1758,0.48828,0.48828,4.3945
-9.1309,-14.111,-12.012,-12.646,-10.889,-8.4473,-8.7402,-16.65,-14.502,-11.279,-8.9355,-7.8613,-1.123,-13.721,-9.9609,-7.7148,-3.9551,-2.7344,-4.2969,-1.0742,1.8066,4.1016,0.48828,-2.9297,6.3477
-8.3496,-12.988,-13.525,-10.84,-10.498,-4.834,-8.0078,-14.648,-14.502,-9.5215,-7.9102,-3.8574,3.7109,-7.9102,-8.2031,-4.1992,-3.2715,-0.48828,-0.78125,1.0742,3.9063,6.8359,3.418,-0.97656,4.8828
-5.4199,-11.816,-11.426,-9.1309,-6.6406,-2.1484,-2.2949,-12.061,-10.742,-8.6426,-4.7852,-1.0742,8.4961,-2.9785,-3.3203,-1.0254,0.73242,5.0781,5.5176,5.8594,8.7891,13.037,1.4648,-4.3945,-0.48828
-8.2031,-13.33,-14.941,-10.791,-7.8125,-0.87891,-0.48828,-8.8379,-11.914,-8.1543,-4.5898,1.6113,7.8125,2.7344,-1.0742,1.8066,4.2969,7.7148,9.7656,9.6191,12.207,17.188,-6.3477,-0.97656,8.3008
-8.1543,-12.354,-13.525,-11.133,-5.7617,-0.19531,4.3457,-3.5645,-7.1289,-6.6895,-1.123,4.7852,12.891,8.6426,4.3457,4.7852,5.5664,8.6426,13.477,12.939,13.77,18.799,-3.9063,-6.8359,0
-5.5176,-10.059,-11.865,-11.426,-2.3926,-0.048828,7.2754,-0.63477,-4.4434,-6.3965,0.92773,5.0781,11.426,9.5703,7.0313,4.9805,8.0078,10.107,15.381,15.723,16.309,21.68,0,1.9531,7.8125
-8.3984,-9.4727,-11.475,-11.768,-5.1758,-1.9531,6.8359,0.58594,-4.248,-7.1777,1.2207,5.1758,10.742,10.547,6.4453,4.6875,6.8848,10.547,14.16,14.014,14.746,19.092,-5.3711,-3.9063,8.3008
-4.8828,-1.123,-5.0293,-7.1777,-1.3184,2.4414,14.648,8.2031,2.5879,-2.7832,5.0781,8.8867,12.549,14.941,10.889,8.8379,10.986,13.721,16.504,15.43,15.82,18.994,1.4648,5.8594,11.719
-4.1992,4.6387,-2.9297,-3.4668,-0.83008,6.25,14.16,12.598,3.418,1.8555,4.0039,10.938,11.328,17.92,9.375,9.4238,9.8633,13.086,14.6,12.109,12.305,13.33,4.8828,4.3945,15.137
-1.6602,7.2754,-0.63477,-0.63477,1.3672,9.5703,13.086,13.33,4.3457,3.9063,6.0059,14.746,13.135,17.383,9.3262,9.082,9.8145,13.721,11.914,9.5703,11.328,9.5703,0.97656,-2.4414,2.9297
4.7363,11.816,6.543,4.4922,8.9355,14.111,18.408,16.748,10.889,8.1543,13.037,18.701,19.043,19.238,14.209,11.719,15.332,19.189,15.723,13.721,15.479,12.744,2.4414,2.4414,8.3008
5.3711,15.039,8.8867,10.205,8.6426,14.648,17.822,19.971,11.963,12.744,13.33,19.873,15.332,23.096,14.697,15.039,15.332,18.457,17.432,15.283,17.09,16.357,3.9063,0.48828,9.2773
11.816,20.264,16.65,15.625,15.186,17.041,18.799,21.826,19.141,18.652,19.092,21.582,17.627,23.584,19.775,19.629,20.459,22.852,20.508,19.775,22.559,20.752,0.48828,2.9297,3.9063
14.648,26.123,21.631,21.777,17.773,19.336,20.654,27.344,23.438,24.951,22.217,24.268,17.822,27.588,23.682,25.342,23.975,23.877,24.072,22.217,23.779,21.533,3.9063,8.7891,9.2773
18.213,32.373,28.223,27.881,20.996,19.531,21.484,30.566,28.027,29.688,22.656,21.68,14.941,27.1,24.756,24.658,19.482,16.553,18.359,15.82,15.918,9.7168,3.9063,5.8594,3.9063
24.561,37.012,34.57,34.912,27.002,25.049,20.703,32.813,31.348,34.57,26.953,24.463,16.943,24.023,24.219,25.293,22.217,18.213,17.285,14.844,14.844,5.9082,5.3711,7.8125,13.184
29.346,35.107,37.939,35.449,30.957,25.342,22.168,29.688,32.91,34.082,29.297,21.875,15.283,20.996,24.365,23.438,20.703,15.918,14.111,11.67,11.572,0.97656,3.9063,4.8828,8.3008
34.424,36.572,40.723,39.014,34.766,28.564,23.779,29.932,35.01,35.303,31.445,22.266,16.992,21.533,24.414,22.754,20.996,15.967,11.719,10.352,9.5703,-2.0508,2.9297,7.3242,12.695
32.422,34.375,39.014,39.209,34.424,29.297,21.777,28.125,32.422,36.084,30.859,24.219,20.068,20.215,23.438,24.365,22.461,17.871,14.16,13.232,13.379,4.3945,10.254,6.3477,16.113
22.656,24.316,28.76,30.42,25.635,19.434,16.162,19.141,24.707,29.053,23.193,15.918,10.645,13.965,18.213,18.555,15.283,10.303,8.9355,8.8379,8.8379,0.92773,2.9297,1.9531,4.8828
20.801,21.484,26.807,25.781,23.926,17.236,19.043,16.797,22.998,25.879,20.85,12.109,11.377,13.574,18.994,16.846,15.527,10.693,13.33,12.207,12.207,6.0547,0.97656,4.8828,6.8359
9.668,10.4,14.795,14.746,12.256,7.1289,11.133,6.543,12.402,14.258,11.035,2.8809,4.3457,7.5684,10.791,9.7168,6.6406,2.6367,9.9121,7.8125,6.6406,4.3457,-1.9531,-2.9297,5.3711
7.7637,11.23,12.598,14.648,10.303,8.3496,13.037,9.375,11.279,15.674,10.596,5.7617,5.7129,11.426,12.598,14.746,10.986,6.8848,15.332,12.891,11.67,11.475,2.9297,-0.48828,3.418
3.4668,6.3477,7.5195,9.7168,5.8105,5.8594,8.6914,5.2246,6.0059,9.668,6.2988,3.5156,2.9297,8.3008,8.6426,10.742,8.1055,4.7363,12.305,10.303,7.4707,7.959,0,-7.3242,3.9063
3.5645,1.9531,6.6895,5.8105,6.1523,3.3203,8.2031,2.9785,6.0059,6.9824,8.0566,4.2969,5.5664,8.4961,10.693,9.4238,8.8379,6.4453,14.355,12.5,9.5703,12.939,-1.9531,-5.3711,2.9297
-1.3184,-2.5879,0.87891,1.2207,0.87891,-0.83008,4.3457,0.78125,2.7832,3.7598,4.1016,3.0762,3.125,6.25,8.2031,6.8359,8.5449,6.9336,13.77,12.354,10.205,13.965,-3.418,-6.8359,5.8594
-7.6172,-6.6406,-5.9082,-2.1484,-6.2012,-5.6641,-0.68359,-2.5391,-3.5156,-0.048828,-1.709,0.19531,-1.123,5.2246,2.9785,4.6875,2.3438,2.9785,9.8145,8.3496,6.8848,9.7168,-2.9297,-10.742,-3.9063
-5.9082,-5.8594,-5.4688,-0.63477,-5.2734,-4.5898,0.048828,-2.3438,-4.1504,0.68359,-1.7578,1.709,-1.2207,6.0059,1.8555,5.0293,3.3203,4.4922,9.668,9.3262,8.3496,11.328,-0.48828,-5.3711,2.4414
-4.7852,-7.6172,-4.2969,-2.2949,-2.4414,-4.0527,2.002,-4.1016,-2.7832,-0.58594,1.416,2.9297,2.832,4.9316,3.6133,3.6133,5.5176,7.373,11.035,10.059,10.791,12.939,-4.3945,-7.3242,0.97656
-3.9063,-5.127,-4.6387,-0.14648,-2.9297,-0.97656,3.5156,-1.3184,-3.3691,-0.68359,0.29297,5.2246,6.3965,7.4219,3.2227,3.7598,3.8574,6.2012,9.4238,8.3984,9.4238,10.547,0,-4.8828,0
0.92773,-2.1973,-1.3672,0.97656,1.5137,0.97656,7.0801,0.48828,-1.0742,-1.3184,1.9043,4.1016,6.7383,5.9082,3.3691,1.7578,4.4922,6.0547,8.8867,8.6426,8.9844,9.6191,4.8828,1.4648,4.8828
-0.48828,-2.0996,-2.832,1.416,0.3418,3.3203,5.8105,1.6602,-2.5879,-0.68359,0.53711,6.5918,4.4434,8.5938,2.4414,3.5156,2.9297,4.1504,7.9102,6.2012,5.9082,8.4473,2.4414,-5.3711,0
-4.3945,-4.9805,-6.4453,-1.1719,-3.125,0.24414,2.832,-0.97656,-5.2734,-5.0293,-2.5879,3.0762,1.4648,4.1504,-1.7578,-1.0254,-1.0254,0.39063,2.5391,0.24414,0.14648,2.4414,2.4414,-7.8125,-4.8828
-6.6895,-8.4961,-9.4727,-5.1758,-5.127,-1.2695,-1.2207,-4.6387,-9.6191,-7.959,-5.4688,-0.048828,-1.1719,-0.19531,-6.6406,-6.25,-6.1523,-4.3457,-1.6113,-4.6875,-5.3223,-2.2949,4.3945,0.48828,1.9531
-7.1777,-11.23,-9.668,-7.1777,-4.6875,-3.7109,-2.9297,-6.9824,-9.082,-8.8867,-4.541,-1.8066,-1.3672,-1.709,-5.957,-8.3496,-7.0313,-6.2012,-3.125,-6.543,-8.1543,-3.6621,0,-5.3711,-0.48828
-8.3496,-11.377,-10.4,-7.8613,-5.2734,-3.7109,-5.3711,-8.9355,-11.719,-10.254,-7.0801,-4.541,-4.541,-7.1777,-10.205,-11.719,-10.84,-10.107,-9.0332,-11.865,-13.33,-11.084,-0.48828,-2.4414,0.48828
-6.0059,-8.3008,-10.107,-5.1758,-5.4688,-2.2461,-6.8359,-8.4473,-12.598,-9.082,-7.8613,-3.418,-6.2988,-7.0801,-11.865,-10.4,-11.914,-11.523,-10.84,-13.916,-14.307,-13.867,-1.9531,-4.3945,-1.4648
-2.5879,-7.1289,-6.8848,-3.3203,-3.8574,-3.0273,-5.127,-8.7891,-10.498,-8.9844,-7.7637,-5.7129,-4.3457,-8.0078,-11.377,-9.9121,-12.549,-12.891,-11.084,-14.355,-15.918,-15.186,5.8594,2.9297,7.3242
-8.0078,-12.646,-13.184,-8.1055,-10.303,-7.7637,-10.938,-13.721,-16.602,-13.379,-13.574,-10.498,-9.7656,-12.891,-16.748,-14.063,-16.943,-17.236,-16.406,-17.871,-18.506,-17.773,0.48828,-5.3711,3.418
-6.5918,-9.8633,-11.719,-4.4922,-9.375,-8.9355,-6.6895,-8.9844,-12.256,-9.0332,-11.133,-8.7402,-10.059,-9.7656,-10.84,-8.7891,-12.793,-13.428,-10.498,-11.475,-11.377,-9.5215,5.8594,1.4648,3.9063
-5.8105,-11.914,-9.3262,-5.4199,-6.1523,-9.2773,-3.6621,-8.7402,-8.5449,-7.4707,-6.3965,-7.6172,-5.6641,-8.1055,-5.3711,-4.2969,-4.1992,-4.9316,-2.0996,-0.29297,0,4.1504,6.8359,-0.48828,10.742
-11.475,-14.502,-13.379,-10.791,-10.938,-12.158,-4.1992,-11.621,-10.742,-11.23,-7.6172,-8.6914,-2.2949,-7.0313,-4.3945,-3.6133,-3.5645,-2.7832,0.68359,3.4668,3.8086,8.4961,0,-5.3711,0.97656
-14.063,-11.279,-14.893,-11.035,-13.916,-11.475,-2.9785,-7.959,-11.719,-10.742,-10.596,-6.9336,-1.1719,-2.8809,-4.6875,-2.1973,-0.87891,0.97656,5.0781,7.5684,9.8633,15.479,-0.48828,-6.8359,-1.9531
-20.264,-13.818,-21.143,-18.652,-21.582,-16.992,-6.1523,-11.182,-18.066,-16.504,-17.432,-11.133,-7.8125,-4.4922,-9.4727,-5.7617,-4.4922,-2.1973,2.9297,3.6621,5.4199,10.889,-2.4414,-11.23,-1.4648
-24.707,-18.115,-25.244,-23.877,-26.367,-21.729,-9.9609,-15.967,-22.314,-22.07,-22.168,-15.869,-11.865,-8.8867,-12.842,-10.352,-10.303,-6.7383,-1.9043,-0.73242,0.78125,7.2754,-4.3945,-21.484,-13.672
-16.064,-13.721,-17.627,-19.189,-18.164,-18.262,-3.9063,-11.963,-16.455,-17.725,-16.406,-13.525,-7.7148,-4.248,-7.2266,-8.0078,-6.4453,-4.541,3.0273,2.7832,2.4902,9.7656,-2.4414,-14.16,0
-22.07,-20.459,-24.854,-24.414,-25.439,-23.828,-9.1797,-16.748,-23.34,-23.584,-22.656,-18.457,-13.232,-7.959,-13.33,-12.207,-13.623,-11.475,-2.9785,-3.9551,-3.8574,4.8828,-3.9063,-16.602,-7.8125
-17.334,-17.871,-19.092,-21.094,-20.898,-22.803,-3.4668,-15.137,-18.359,-21.387,-19.336,-19.482,-11.279,-7.8613,-10.059,-12.207,-12.354,-12.207,-1.9043,-3.2227,-4.0527,4.5898,2.9297,-10.254,-0.48828
-14.355,-12.061,-16.211,-14.502,-18.262,-16.699,-2.9785,-8.6914,-16.309,-16.211,-18.701,-14.746,-10.986,-1.709,-9.4727,-8.1543,-10.645,-10.986,1.1719,-1.9043,-2.7832,5.957,0.97656,-1.9531,-0.97656
-21.387,-17.725,-22.363,-22.266,-23.828,-22.559,-4.9316,-12.451,-20.41,-21.973,-23.096,-19.58,-14.941,-5.9082,-12.988,-14.941,-16.846,-16.65,-6.4941,-9.7168,-9.6191,-4.7363,-4.8828,-9.2773,-3.418
-13.574,-11.572,-14.014,-17.529,-15.527,-15.82,1.7578,-7.5195,-13.574,-17.285,-16.113,-13.623,-3.0762,-4.248,-7.8613,-13.037,-11.035,-9.5215,-5.5176,-8.3496,-7.8125,-7.8125,1.9531,-3.9063,0.48828
-12.256,-7.6172,-12.939,-14.453,-17.48,-15.527,0.83008,-4.9316,-12.695,-15.332,-17.432,-13.428,-8.3496,-1.2207,-8.7402,-11.816,-12.842,-11.523,-7.1289,-10.986,-10.4,-11.572,0,0,2.9297
-7.5195,-2.4902,-6.0547,-8.6914,-12.012,-11.816,6.7383,2.0996,-5.2734,-9.1309,-10.84,-7.1289,-6.0059,5.3223,-2.002,-4.9316,-5.7129,-4.0039,0.29297,-3.9063,-3.0273,-4.3457,2.9297,-8.7891,0
-7.959,-4.541,-6.6895,-11.475,-11.67,-13.33,5.957,-0.43945,-5.4199,-10.352,-9.7168,-6.6406,-3.7109,4.1992,-1.5625,-6.8359,-4.9805,-2.3438,0.92773,-3.2227,-2.6855,-3.7109,2.4414,-9.7656,-1.4648
-12.549,-8.8867,-11.279,-14.063,-16.064,-17.285,-0.048828,-5.7617,-10.205,-13.818,-13.037,-9.0332,-5.1758,-1.7578,-6.2988,-10.059,-9.2285,-6.2988,-3.8574,-6.543,-5.3711,-5.5664,0.97656,-10.742,-3.9063
-15.283,-12.354,-12.793,-17.578,-16.406,-19.287,-1.2695,-8.7891,-11.035,-14.99,-12.988,-11.23,-7.5684,-3.125,-5.3223,-9.8633,-8.252,-6.0059,-0.3418,-3.4668,-3.3691,-0.63477,3.418,-13.184,-4.8828
-16.455,-14.795,-14.16,-16.748,-14.697,-16.455,-4.0039,-10.596,-11.133,-13.33,-10.254,-8.0566,-2.9785,-2.6367,-4.541,-7.3242,-6.9824,-4.6387,1.0742,-0.83008,-1.8555,3.418,0.48828,-9.2773,0
-19.873,-17.236,-17.92,-17.139,-17.822,-16.455,-9.1797,-14.014,-15.381,-14.746,-14.014,-11.279,-8.4473,-5.5664,-9.8633,-9.1309,-9.8633,-9.1797,-2.002,-4.1504,-5.957,-0.48828,-6.8359,-15.137,0
-17.529,-13.77,-13.77,-13.037,-13.477,-11.914,-7.2754,-9.7168,-10.742,-9.2773,-9.082,-6.8848,-7.3242,-2.2461,-4.8828,-4.248,-4.834,-5.5664,1.9043,-0.14648,-2.0996,2.4902,-7.3242,-12.695,0.97656
-4.4922,-1.5625,1.4648,-0.87891,-0.63477,-3.9551,3.5645,0.97656,3.3691,2.4414,2.9785,0.24414,-0.24414,5.957,6.4453,4.2969,3.0273,0.73242,9.2773,6.8359,4.541,9.082,-0.48828,-8.3008,1.4648
-5.4688,1.123,2.2461,1.2207,-2.9785,-7.666,0.83008,-0.29297,1.2207,2.1484,-0.3418,-3.5645,-8.4961,2.7344,2.2461,1.7578,0.3418,-2.5879,5.0781,4.541,1.5625,6.6406,-3.418,-3.9063,0.48828
-7.1777,3.5156,1.3672,1.1719,-6.1523,-8.0566,1.8066,3.3691,2.5391,5.3223,0.19531,-1.6602,-9.5703,6.8848,4.248,6.1035,2.3438,-0.29297,9.2773,8.1055,5.4688,12.793,-5.3711,-7.8125,-10.742
-7.8613,5.6152,3.125,2.2461,-5.957,-7.959,5.0293,5.6641,3.8086,5.957,0.97656,-2.002,-8.1543,8.1543,5.127,7.1777,3.5156,-0.39063,9.0332,8.4473,6.0059,10.547,0,-6.3477,-10.742
-3.9063,6.4941,5.3223,5.6641,-1.709,-3.2227,6.3477,7.959,6.2988,10.547,3.9551,1.8066,-4.5898,11.816,8.6914,11.572,8.4473,4.1016,14.941,12.988,10.254,15.381,-2.4414,-6.8359,-0.97656
-3.2715,4.9316,3.9551,7.8125,0.58594,0.78125,5.2246,7.373,6.543,11.865,5.6641,3.6621,-1.9531,12.451,9.5215,12.549,8.1543,3.0273,12.695,10.938,8.1543,9.082,-5.3711,-11.719,-7.8125
7.666,10.596,12.891,17.285,14.063,13.867,9.7656,13.037,14.941,20.508,16.211,13.916,8.2031,17.432,16.553,19.043,17.236,12.402,17.92,17.627,13.818,12.061,0.48828,-2.4414,7.3242
8.6914,7.7148,11.719,17.236,14.111,13.33,6.0547,8.252,12.598,17.969,15.674,13.477,8.6426,14.795,14.502,15.869,14.453,10.449,14.111,13.33,10.352,7.1777,2.9297,-2.9297,7.8125
10.059,7.373,13.574,18.457,15.771,13.135,6.3477,8.8867,15.039,18.408,16.699,14.404,10.059,15.039,16.162,18.945,17.822,14.453,15.967,16.406,14.844,12.012,5.8594,6.8359,12.207
8.0078,5.6641,11.523,17.578,14.014,13.672,3.8086,8.2031,12.646,18.945,16.455,17.383,12.598,14.795,14.99,18.848,17.725,16.113,16.406,16.455,14.746,13.477,1.4648,4.3945,6.3477
1.0742,-0.43945,5.4199,8.9355,6.4453,3.9551,0.48828,1.4648,6.3477,9.668,9.1309,8.4961,3.2227,7.5195,8.6914,10.01,8.8379,6.7383,7.8613,7.7637,7.1289,5.7129,-2.9297,-4.8828,-4.3945
3.7598,1.3672,8.1543,8.8867,10.254,6.3965,6.3965,6.6895,10.254,12.451,13.672,12.061,7.4219,11.426,14.355,13.184,14.844,13.623,14.111,13.965,13.721,11.768,-1.4648,2.9297,2.4414
1.0742,0.048828,4.7363,6.4941,6.8848,5.7617,6.7383,5.2246,6.9824,8.0078,10.156,10.303,5.4688,9.2285,10.645,9.9121,9.7656,11.328,9.375,9.668,9.375,6.0547,2.4414,0.97656,-1.9531
4.0527,1.0742,5.8105,6.4941,7.6172,6.4453,7.5684,4.5898,5.6152,5.8594,9.4238,9.4727,7.1777,8.6914,8.9844,8.1543,10.205,12.158,8.3496,9.668,10.596,7.0801,-1.4648,-1.9531,1.9531
0.3418,-0.87891,0.19531,1.6113,2.2461,2.9297,6.9824,4.248,1.4648,1.1719,3.2227,6.1035,3.7109,8.0078,6.0059,5.9082,6.3965,9.1797,6.1035,6.7383,8.5449,5.3223,-3.9063,-3.418,0.48828
-4.1016,-1.416,-3.2715,-0.63477,-2.7344,-1.123,5.7617,3.5645,-1.2695,-0.83008,-1.0254,3.6621,0.78125,5.957,2.832,2.832,2.6855,5.3711,3.418,4.7852,7.0313,6.8848,-1.4648,-2.4414,-6.8359
-7.959,-9.9609,-7.7637,-8.9355,-7.0801,-7.666,-1.416,-7.2754,-8.1055,-10.645,-6.3965,-2.3438,2.832,-5.2734,-5.4199,-7.666,-3.1738,1.1719,-3.418,-1.3184,2.7344,4.2969,-0.48828,1.4648,-2.9297
-8.1543,-13.086,-10.01,-11.816,-10.107,-11.133,-2.2461,-10.254,-10.449,-14.014,-8.7891,-5.3223,2.4902,-7.9102,-8.1055,-10.059,-6.3477,-1.8555,-5.6152,-3.3691,-0.19531,3.9063,0,1.9531,-10.254
-7.3242,-6.0059,-7.373,-5.3223,-7.959,-6.2012,-2.6367,-4.4922,-8.252,-7.1289,-7.4219,-2.1484,-2.0508,-3.2715,-7.4707,-4.7363,-4.1016,-0.24414,-2.6855,-0.97656,1.416,7.5195,-2.4414,-0.97656,-14.648
-7.2266,-5.8594,-7.1289,-6.7383,-8.8379,-6.5918,-5.9082,-7.7148,-10.791,-10.107,-9.8145,-6.1035,-4.9805,-10.645,-12.158,-11.865,-9.2773,-6.7383,-10.449,-10.107,-8.8867,-3.9551,4.8828,4.8828,-4.3945
-0.53711,2.5391,0.39063,2.5391,-1.123,-0.097656,0.92773,0.87891,-1.9531,-0.63477,-2.7344,0.97656,-1.5137,-2.4902,-3.3691,-2.002,-3.5156,-2.7344,-2.6367,-3.0273,-3.125,1.3672,7.3242,6.3477,-1.4648
4.4922,8.7402,5.2734,7.0801,3.7109,3.2227,1.5625,5.4199,2.3926,4.248,1.123,3.0762,0.68359,1.0254,0.097656,2.5391,0.83008,-1.4648,-0.53711,-0.63477,-2.7344,-0.83008,9.2773,7.8125,3.9063
4.9805,7.666,5.2734,5.4199,1.8555,-1.123,-0.24414,1.416,1.5625,0.63477,-1.3184,-3.3203,-8.252,-1.709,-2.5879,-2.1484,-5.8105,-7.4707,-4.1504,-5.7617,-7.5684,-5.8594,4.8828,6.8359,0.97656
5.0293,8.1055,4.7852,6.8359,1.7578,1.3184,-0.3418,2.002,-0.048828,1.5137,-2.0996,-0.53711,-6.8359,-0.24414,-4.0527,-0.87891,-3.2715,-4.4922,-2.7832,-4.248,-5.7129,-4.4922,5.3711,10.742,1.4648
-1.0254,-2.4902,-2.0996,-3.8086,-3.5645,-6.1035,-4.6875,-5.1758,-4.1016,-5.8105,-5.6152,-7.9102,-9.082,-4.4434,-4.6875,-6.0059,-6.25,-7.4219,-3.418,-5.0781,-6.2012,-4.3945,0.97656,3.9063,-4.3945
0,1.709,-1.1719,1.3184,-0.97656,-0.24414,-1.2695,-0.39063,-1.4648,-1.709,-3.3203,-2.7344,-5.3711,-0.3418,-2.3926,-1.5625,-3.6133,-4.9316,-1.3184,-2.4902,-2.3438,-1.8555,10.742,7.8125,0.48828
-0.58594,-1.9531,-0.14648,-2.7832,-0.19531,-2.9785,-0.78125,-3.3203,-0.58594,-4.1504,-1.1719,-4.6387,-3.6133,-3.6133,-0.29297,-4.4434,-1.5137,-3.1738,-0.29297,-0.87891,-0.39063,-0.83008,2.4414,5.8594,0.48828
-1.5625,2.0508,-0.73242,1.2207,-1.8555,0.63477,-0.78125,1.8555,0.14648,0.83008,-0.14648,0.58594,-3.6133,1.4648,0.29297,1.6602,0.63477,-0.87891,2.3926,1.416,1.709,2.1484,-1.4648,0.48828,-1.4648
-0.63477,-0.24414,-0.73242,-0.73242,-2.1484,-1.2207,-3.5645,-3.5156,-2.7344,-2.6367,-3.3203,-2.5391,-4.3457,-4.7852,-4.2969,-3.8574,-3.125,-4.5898,-4.7363,-5.9082,-4.834,-6.5918,0.48828,0.97656,2.4414
2.3926,4.4434,2.0508,2.832,0,2.3438,-1.6602,0.097656,-1.5137,0.92773,-0.48828,2.7832,0.63477,-0.58594,-1.6113,-0.19531,-0.68359,-1.1719,-1.0742,-2.3926,-1.2695,-3.4668,6.3477,15.625,19.043
-3.6133,-1.3672,-3.8574,-2.2949,-6.25,-4.3945,-7.2266,-5.4199,-6.3477,-3.4668,-6.5918,-2.9297,-4.834,-4.541,-6.4941,-5.4199,-8.0078,-8.6914,-6.25,-8.252,-7.959,-8.7891,0.97656,6.8359,2.9297
-0.29297,-4.8828,-2.832,-5.2246,-2.2949,-5.6152,-4.834,-8.0566,-6.1523,-8.0078,-5.7617,-7.959,-5.6641,-7.7637,-5.127,-10.254,-7.8613,-9.668,-5.8105,-8.1055,-7.7148,-6.4453,4.8828,8.3008,5.3711
-6.8359,-10.303,-11.719,-8.6426,-9.8145,-7.4219,-11.035,-11.377,-12.842,-12.158,-12.256,-10.596,-11.23,-9.5703,-10.938,-11.182,-12.158,-13.037,-8.9355,-11.084,-9.9609,-8.8867,3.418,4.8828,0
-5.6152,-10.645,-9.1309,-9.3262,-7.373,-7.8125,-5.4688,-9.4727,-10.01,-13.232,-9.4727,-10.938,-7.373,-7.2754,-7.6172,-10.059,-8.9844,-9.3262,-5.2246,-7.959,-5.7129,-4.834,0.48828,-3.418,-6.8359
0.097656,-0.58594,-4.1016,-0.73242,-2.0508,3.125,0.39063,0.14648,-5.7617,-4.7852,-3.6621,0.92773,-0.14648,2.3438,-3.0273,-0.92773,-0.53711,1.3184,1.6113,0.48828,3.2227,3.6621,7.8125,4.8828,2.4414
-1.9531,-4.6387,-5.5664,-6.0547,-2.3926,-1.2207,1.3184,-2.9785,-5.4688,-8.3984,-1.6113,2.002,5.7617,-1.7578,-1.7578,-2.9785,0,4.2969,-1.2695,-0.92773,3.9063,1.416,-3.418,0.97656,2.4414
-5.7617,-4.7363,-6.2988,-7.5684,-4.1504,-2.1484,2.7344,-0.97656,-4.541,-6.0059,-1.4648,3.7598,6.543,0.19531,-0.83008,-1.3184,3.8574,9.082,2.7832,2.2949,6.8848,5.3711,0,2.4414,6.8359
-6.9824,-4.9805,-7.0313,-8.0566,-5.9082,-4.0039,3.6621,-0.48828,-4.834,-5.8594,-1.8555,3.418,5.8105,3.6621,0.73242,0.73242,3.7109,8.5938,5.5664,3.9063,7.6172,7.1289,-6.8359,-4.3945,-7.3242
-4.7852,-1.3672,-5.0781,-4.0039,-5.2734,-2.4902,5.9082,3.6133,-2.002,-1.8066,-1.2207,4.4922,1.5625,8.3008,3.125,5.3223,6.0059,9.082,10.059,7.3242,9.4727,10.791,2.9297,3.9063,3.418
-2.832,0.48828,-3.8574,-0.68359,-1.8066,2.4902,5.3711,5.7617,-0.048828,2.0508,1.416,6.543,2.5879,11.475,5.7129,7.5195,8.1055,9.8145,12.744,9.9609,10.107,13.281,5.3711,9.7656,-0.48828
-0.58594,-2.0508,-1.709,0.048828,0.78125,0.48828,4.5898,3.0762,1.0742,1.6113,2.6855,2.6855,-0.73242,9.2773,7.4219,5.5664,4.3945,4.9805,11.377,7.2754,6.3477,9.4727,8.7891,7.8125,-1.4648
6.6406,7.6172,3.4668,8.8867,6.2012,9.1797,7.5684,9.5703,4.4922,6.8848,4.9805,5.8594,-1.2207,13.184,8.5938,8.9355,6.9824,6.0059,14.063,9.1797,8.3008,10.4,15.625,21.484,9.2773
9.4238,9.5703,6.9824,8.8867,7.666,7.5684,8.9355,8.9355,6.6406,5.957,6.0547,3.7109,-0.3418,10.693,9.1309,8.252,5.0293,3.125,11.035,6.4941,4.7363,6.4941,12.207,21.484,10.742
6.0547,5.0781,4.9316,4.1016,2.9785,0.24414,6.7871,4.7363,3.7598,0.92773,1.3184,-2.9297,-5.2246,5.2246,5.3223,2.5391,1.0254,-1.123,7.7637,4.0527,2.6367,5.3711,10.742,18.555,0.97656
2.8809,2.4902,2.2461,0.53711,-0.19531,-3.8574,4.6387,1.3184,0.68359,-3.0273,-1.5625,-5.0781,-6.4941,2.002,2.0508,0.68359,-0.19531,-1.5137,5.5176,2.3926,1.3184,5.6641,5.8594,14.16,2.4414
0.92773,-0.29297,-0.63477,-2.2461,-2.2949,-4.2969,5.0293,-0.048828,-0.3418,-4.1016,-2.3438,-4.0039,-2.2949,0.19531,1.416,-1.0742,-0.92773,-1.2207,3.8086,2.3926,3.2227,6.7871,4.3945,9.2773,-3.9063
-5.7617,-7.0313,-7.0801,-8.7891,-8.0566,-10.107,0.87891,-6.1035,-6.7383,-9.5215,-7.5195,-7.8125,-3.8086,-5.5664,-4.1992,-6.8848,-4.1504,-3.0762,-0.3418,-0.78125,0.14648,4.4922,8.7891,7.8125,-1.9531
-11.523,-14.502,-14.551,-14.502,-12.549,-11.328,-2.9297,-12.939,-12.695,-14.551,-10.547,-8.1055,-0.78125,-8.3008,-9.2773,-10.84,-7.1777,-4.0039,-4.9316,-6.0547,-3.7598,0.19531,0.48828,-0.48828,-1.9531
-15.625,-16.846,-20.068,-15.332,-16.992,-13.916,-7.5195,-15.918,-18.994,-16.504,-15.918,-10.986,-8.6914,-11.67,-16.895,-13.867,-11.426,-9.0332,-10.498,-11.377,-7.5684,-4.1504,-2.4414,0.48828,-9.7656
-10.938,-14.941,-16.504,-10.059,-11.426,-8.7402,-6.5918,-14.551,-16.504,-12.695,-12.012,-7.8125,-4.2969,-10.547,-15.283,-12.5,-9.9121,-7.4219,-10.791,-11.719,-7.5684,-4.9805,0.97656,8.3008,7.3242
-11.963,-16.846,-18.213,-12.891,-13.721,-13.33,-9.2285,-16.504,-18.701,-16.504,-15.674,-13.33,-11.133,-13.672,-17.822,-17.871,-16.406,-14.404,-17.09,-18.457,-14.111,-11.621,-0.48828,3.418,1.9531
-5.8105,-8.0566,-10.645,-4.4434,-7.8613,-6.3477,-1.8066,-6.9824,-11.279,-7.8125,-9.1797,-6.6895,-6.5918,-5.6641,-10.596,-9.1797,-7.0801,-6.6895,-7.9102,-8.5449,-5.127,-1.2207,4.8828,10.254,8.3008
-9.1797,-12.158,-14.453,-9.082,-12.646,-10.352,-6.6406,-13.135,-15.43,-14.111,-14.209,-11.768,-10.547,-12.451,-15.674,-16.504,-15.381,-13.77,-16.455,-17.432,-14.453,-13.867,9.2773,10.742,3.418
-8.9355,-15.479,-14.16,-12.109,-12.646,-12.939,-7.5195,-16.26,-15.918,-18.506,-14.941,-15.381,-11.523,-15.771,-16.357,-19.482,-17.578,-17.188,-18.848,-20.557,-18.164,-18.848,4.3945,3.418,-3.9063
-11.279,-13.965,-15.234,-11.475,-14.502,-10.986,-8.7402,-14.209,-16.602,-16.602,-15.43,-13.379,-11.475,-12.988,-15.771,-16.895,-16.064,-15.674,-15.088,-17.822,-16.504,-15.723,3.418,1.9531,3.9063
-12.402,-14.453,-16.699,-12.598,-15.967,-11.475,-9.7168,-13.623,-17.773,-16.602,-17.334,-12.402,-9.668,-12.744,-17.188,-16.797,-18.896,-17.139,-16.65,-19.678,-19.727,-19.141,2.9297,-2.9297,1.9531
-12.207,-13.721,-15.283,-12.891,-13.916,-13.184,-8.0566,-12.158,-16.602,-16.113,-14.893,-11.328,-6.7871,-11.279,-14.6,-15.625,-13.867,-11.67,-11.572,-14.746,-14.502,-13.135,2.9297,-1.4648,8.7891
-12.939,-18.115,-16.553,-17.383,-15.967,-18.604,-8.252,-16.357,-17.871,-21.533,-16.064,-15.625,-7.1289,-14.014,-14.697,-19.385,-18.066,-14.6,-13.379,-16.65,-15.381,-13.672,0.48828,1.9531,3.9063
-7.5684,-13.77,-11.475,-11.621,-11.621,-13.818,-3.418,-10.889,-12.793,-15.771,-12.207,-11.865,-3.1738,-7.373,-10.107,-13.574,-12.061,-8.7402,-6.8359,-10.352,-8.6426,-5.5176,6.3477,6.3477,9.7656
-10.645,-15.234,-13.965,-14.746,-14.16,-16.309,-6.4453,-12.402,-14.453,-18.115,-14.746,-14.063,-7.2754,-8.4961,-11.67,-15.43,-13.525,-10.4,-7.4707,-11.23,-9.1309,-7.4707,0.48828,-0.97656,9.2773
-15.088,-15.723,-17.48,-14.648,-18.213,-16.748,-9.1309,-12.549,-17.822,-17.822,-18.652,-14.941,-11.621,-8.9355,-15.332,-16.65,-17.188,-14.014,-11.035,-14.941,-12.256,-10.645,-5.3711,-0.97656,0
-7.7637,-12.5,-11.914,-12.256,-10.938,-13.037,-7.3242,-12.793,-14.014,-15.82,-13.33,-13.428,-6.1035,-9.9609,-12.598,-16.309,-12.256,-8.6426,-6.9336,-10.01,-8.4961,-4.541,-0.97656,0.97656,10.254
-7.7637,-12.012,-12.158,-11.914,-12.256,-12.305,-8.3984,-13.623,-15.625,-16.309,-14.6,-12.988,-6.9336,-11.084,-15.186,-16.992,-14.6,-10.498,-9.8145,-13.379,-11.035,-7.6172,4.3945,1.9531,10.254
-5.3223,-8.6426,-9.8633,-9.6191,-10.01,-10.498,-6.7871,-12.402,-14.209,-14.648,-12.402,-10.059,-0.48828,-11.523,-16.064,-15.625,-13.574,-8.4473,-11.963,-14.063,-10.84,-7.959,6.3477,9.7656,18.555
-6.0059,-10.303,-12.354,-11.67,-13.428,-12.402,-10.986,-15.82,-18.359,-18.066,-17.188,-12.793,-3.3691,-17.627,-20.947,-20.996,-18.066,-12.256,-17.383,-20.068,-15.381,-14.209,4.8828,4.3945,11.719
-1.2695,-5.0781,-7.5684,-5.2246,-9.375,-6.3965,-8.3008,-11.035,-14.258,-13.086,-13.721,-7.0801,1.9531,-13.379,-17.969,-16.455,-15.088,-9.4238,-15.918,-17.773,-12.5,-14.355,13.184,16.113,12.695
-5.7129,-10.254,-10.889,-9.5703,-12.891,-10.645,-10.693,-14.99,-18.066,-17.627,-17.773,-12.939,-4.834,-17.383,-20.654,-20.996,-17.432,-12.744,-18.555,-18.799,-15.283,-17.676,8.7891,15.625,8.3008
-2.1484,-10.352,-8.3496,-8.6914,-9.668,-9.2773,-7.4219,-13.574,-13.086,-15.527,-13.379,-11.865,-2.3926,-12.305,-14.014,-16.748,-14.307,-9.4727,-12.256,-13.33,-10.4,-10.742,4.3945,13.672,7.3242
1.3184,-6.2012,-3.9551,-5.4688,-4.6875,-3.9551,-1.7578,-8.1055,-7.2754,-10.742,-7.3242,-5.4688,2.4414,-4.8828,-6.7871,-8.252,-5.0293,-0.73242,-2.4414,-3.8574,-1.6602,-1.5137,0.48828,12.207,8.3008
-0.58594,-6.1035,-5.127,-6.9336,-4.3945,-4.1016,0.43945,-6.9824,-6.8359,-10.059,-5.7617,-3.7109,2.1484,-1.4648,-4.2969,-5.957,-2.6855,0.58594,0.39063,-1.8066,0.14648,-0.14648,8.3008,14.648,14.16
-2.3926,-4.4434,-7.5684,-5.0293,-6.6895,-3.4668,-0.19531,-3.6133,-8.7891,-6.9824,-6.8848,-2.4902,-4.1016,1.4648,-5.5176,-3.9551,-4.4922,-1.6602,1.0742,-2.2461,-1.1719,-0.92773,7.8125,8.3008,7.3242
-1.4648,-6.2988,-6.3477,-6.8848,-4.4922,-5.8105,-0.14648,-6.543,-7.8613,-8.8379,-5.7617,-4.4922,-3.5645,-2.4902,-5.2246,-6.543,-3.418,-2.002,-0.63477,-2.2461,-1.1719,0.048828,3.418,14.16,12.695
1.6113,-2.3438,-3.0273,-0.68359,-2.0508,-0.53711,-0.97656,-2.6855,-4.9316,-2.5879,-2.0508,1.0254,-0.43945,2.002,-2.3926,-0.3418,-0.19531,0.97656,1.709,1.0742,1.9531,1.6113,12.207,15.625,6.8359
0.43945,-6.0547,-5.957,-1.9043,-2.9297,-0.58594,-3.0273,-5.4199,-7.666,-4.3945,-4.2969,-1.8066,-3.9063,-1.416,-5.7617,-2.9297,-3.4668,-3.418,-2.4902,-3.0762,-2.1484,-3.0762,14.16,18.555,12.207
1.123,-6.4453,-6.1523,-2.6855,-2.3438,1.2207,-2.3438,-4.9316,-7.2754,-4.3457,-3.6621,-0.58594,-1.9043,-1.2207,-4.6875,-1.6602,-1.6113,-2.1973,-1.5137,-1.5137,-0.58594,-2.5879,11.719,16.113,8.3008
0.14648,-7.2754,-7.5684,-1.4648,-2.002,2.832,-4.2969,-4.1016,-8.0566,-3.8086,-3.125,2.832,1.123,-0.048828,-3.9551,-0.19531,-1.5137,-0.73242,-1.5137,-1.6113,-1.5137,-3.5645,1.4648,10.254,2.4414
-5.5176,-11.816,-13.135,-7.6172,-7.0313,-3.1738,-5.3711,-9.4238,-14.209,-10.596,-8.8379,-3.0273,-1.6602,-5.6152,-9.6191,-7.0801,-6.8359,-5.4199,-6.2988,-7.2266,-7.8125,-10.645,9.2773,8.7891,7.3242
-4.5898,-11.768,-14.063,-8.3984,-7.3242,-2.7344,-6.3477,-9.1797,-14.063,-10.254,-8.1055,-1.1719,-0.3418,-4.248,-8.2031,-4.1016,-5.8105,-3.2227,-4.4434,-5.2246,-5.6152,-7.959,6.3477,13.672,9.2773
-0.87891,-8.0078,-7.5195,-5.9082,-4.1992,-5.2246,-1.2207,-5.4199,-7.4219,-7.0801,-4.248,-2.002,-1.5625,-0.97656,-2.6367,-0.73242,-1.3184,1.0742,2.1973,0.68359,-0.43945,-0.87891,3.9063,12.207,8.3008
-3.1738,-7.2266,-9.2285,-4.9805,-7.4219,-5.8105,-3.9551,-5.3223,-9.9609,-5.6641,-7.2266,-4.1016,-6.0547,-2.002,-5.7617,-2.1973,-3.8086,-2.8809,-2.3926,-3.8086,-4.5898,-6.1523,8.3008,11.23,11.719
-1.0742,-11.279,-8.5938,-6.6406,-4.7363,-8.2031,-7.8613,-9.5215,-9.0332,-6.7871,-5.5176,-5.3223,-5.9082,-5.4688,-5.6152,-5.1758,-5.3711,-4.5898,-3.8574,-5.5664,-5.5664,-7.2754,10.742,13.184,9.2773
2.0508,-7.1777,-3.6621,-3.4668,0.53711,-3.418,-5.0781,-6.1523,-4.6875,-3.125,0.048828,-0.39063,-1.8066,-4.3457,-1.709,-3.0762,0.29297,1.7578,0.87891,-0.83008,-0.48828,-2.9297,8.7891,10.742,6.8359
-1.5625,-13.574,-8.9844,-7.4707,-3.9063,-6.7871,-8.8867,-11.426,-10.4,-10.4,-5.0781,-4.5898,-5.7617,-8.5938,-7.7637,-8.8379,-5.5664,-3.5156,-5.7617,-8.0078,-7.4707,-10.059,3.9063,1.4648,-0.48828
0.68359,-12.305,-8.5938,-4.7363,-1.9531,-3.125,-10.352,-11.719,-11.572,-9.9121,-4.541,-2.4902,-3.0762,-8.1543,-8.9844,-9.4727,-5.3711,-2.4902,-6.2012,-7.5195,-7.0801,-9.082,3.9063,6.8359,4.3945
-2.2949,-12.5,-11.182,-3.8086,-4.1992,-2.6367,-13.672,-12.842,-15.039,-10.156,-6.6406,-0.97656,-3.6621,-10.498,-12.939,-11.035,-6.1035,-3.0273,-8.8379,-9.8633,-8.9844,-11.865,2.4414,10.254,8.7891
5.5176,-7.0313,-2.3438,0.73242,2.6855,-1.0254,-3.2715,-6.25,-4.2969,-4.1016,1.416,1.8555,3.9063,-3.8574,-1.8066,-3.1738,0.097656,1.0742,-0.58594,-1.0254,-1.2207,-1.8066,1.4648,10.254,6.3477
3.7598,-4.0527,-1.416,1.9531,1.1719,-2.4902,-2.5879,-3.5156,-2.3926,1.0742,2.0996,1.2207,1.123,-1.6113,0.92773,2.0508,3.9063,2.3926,2.9297,4.1016,3.2715,3.0762,2.4414,10.254,6.3477
1.5137,-6.2012,-1.9531,-1.3672,-1.9531,-8.0078,-2.7344,-6.0059,-1.8555,-0.39063,0.97656,-2.1973,0.24414,-3.3691,1.3672,3.2227,1.5625,-0.92773,1.2695,3.2227,1.416,1.7578,3.418,7.8125,7.3242
0.87891,-1.416,-1.8066,4.5898,-0.92773,-2.832,-2.3438,-0.87891,-1.2695,5.4199,0.58594,0.39063,-2.0508,2.2949,2.0996,9.8145,4.6875,0.73242,5.8105,7.6172,3.6133,6.1035,3.418,5.3711,3.418
0.92773,-6.3965,-2.2949,-0.39063,-1.2207,-7.6172,-2.4414,-6.2988,-1.709,1.0254,-0.048828,-5.8105,-4.7852,-2.3926,1.8555,4.9316,1.5625,-3.5156,3.3691,4.2969,-0.097656,3.0273,12.695,5.8594,3.418
1.709,-4.5898,-3.0762,2.2949,0.87891,-3.418,-3.9063,-3.9551,-2.002,4.4922,0.92773,-1.7578,-2.4902,-0.83008,2.3438,6.8359,1.8066,-3.3691,1.6113,2.9297,-1.5625,0.24414,8.3008,12.695,5.8594
1.4648,-9.375,-4.1016,-1.6602,0.48828,-8.2031,-5.3711,-7.9102,-2.7832,-1.2695,-2.2949,-9.7168,-8.8867,-6.2012,0.29297,-0.48828,-3.9063,-10.352,-3.4668,-3.0762,-9.2285,-7.1777,5.8594,7.3242,9.7656
5.8594,-5.4199,-0.97656,4.9805,4.0527,-3.8574,-4.3457,-5.5664,-0.14648,3.1738,1.3672,-6.3965,-8.6426,-4.248,0.83008,2.3438,-2.3926,-9.9121,-4.3945,-3.9551,-9.5703,-7.6172,3.9063,7.3242,2.4414
11.475,3.3203,6.25,15.723,10.059,5.3223,-1.9531,3.125,5.5176,13.525,6.5918,3.4668,-3.9551,3.8086,5.0293,11.035,4.3457,-2.1484,0.68359,0.87891,-3.3691,-1.9531,6.3477,8.7891,12.207
14.404,5.8105,9.9609,17.627,12.744,8.5449,1.2695,4.9805,7.5684,12.695,8.1055,5.8594,-0.24414,3.5645,4.8828,9.4727,5.5176,0.39063,-0.14648,1.5137,-1.416,-2.4902,1.4648,7.3242,14.16
19.238,8.4473,11.768,20.508,17.236,16.309,1.3672,4.2969,7.959,12.158,11.377,10.645,9.1309,2.1973,4.0039,7.2754,6.25,4.4434,-1.709,0.92773,0.68359,-2.3926,7.3242,16.602,21.973
20.557,9.375,11.67,19.043,16.016,18.359,0.92773,2.3926,2.9297,7.5684,7.6172,11.768,10.547,-0.83008,-1.9043,2.3438,5.1758,5.4688,-3.5156,-0.19531,2.002,-1.709,12.207,18.066,20.996
15.381,4.6875,3.5645,10.498,7.0313,11.963,-3.5156,-4.9316,-6.7383,-3.8086,-0.83008,5.3223,5.8594,-7.8613,-11.377,-6.9336,-3.2227,0.48828,-9.7168,-6.6406,-2.9785,-6.543,4.8828,24.414,22.461
15.527,-0.63477,0.14648,4.1016,5.2734,8.6426,-3.8574,-9.9121,-11.084,-11.426,-3.1738,0.87891,6.543,-11.377,-12.891,-11.914,-4.6387,0.39063,-9.0332,-6.4941,-2.2461,-4.1016,18.066,28.809,23.438
9.1797,-4.5898,-5.0293,-3.2227,-0.43945,2.9785,-3.0762,-12.256,-14.355,-15.527,-7.0313,-1.0254,5.0781,-11.084,-13.721,-13.33,-5.6641,-0.29297,-7.8613,-5.6152,-1.7578,-2.8809,16.113,22.949,15.137
-1.0254,-7.7637,-11.377,-8.0078,-9.0332,-6.2012,-5.2734,-9.8633,-15.527,-15.576,-11.475,-4.1992,-3.5645,-8.5938,-13.477,-11.865,-9.5703,-5.7617,-8.7891,-7.5684,-5.4199,-6.1035,19.043,20.508,15.137
0.14648,-6.6895,-7.2754,-5.4199,-2.002,-3.2715,1.123,-4.834,-7.3242,-8.5449,-2.9785,-0.3418,-0.24414,-4.3457,-4.6875,-4.6387,-0.87891,0.92773,-0.78125,0.048828,0.24414,-1.9043,10.254,10.254,15.625
4.6387,-0.83008,-0.83008,2.4902,5.2246,4.834,4.1992,2.3438,2.1484,2.4902,7.959,10.156,5.9082,2.9785,4.0527,6.3477,8.8867,9.1797,5.8105,7.4219,8.0566,4.5898,15.625,15.625,11.719
10.596,10.889,9.082,12.109,13.037,12.158,11.377,12.793,12.402,13.623,15.186,16.016,8.7402,11.328,11.328,14.99,14.941,13.037,10.986,13.232,11.865,7.9102,18.066,20.508,17.578
8.0078,7.1289,7.1289,7.3242,8.7402,7.1777,8.3008,8.252,8.5938,7.666,9.6191,7.7148,2.3438,4.1016,6.5918,7.2266,8.1055,5.5176,5.9082,6.6406,4.9805,2.6855,13.184,14.648,14.16
14.355,11.328,13.037,11.426,12.744,9.668,11.279,10.059,12.305,10.352,13.525,9.9609,7.2266,5.8105,10.01,9.0332,9.8633,7.5195,8.1055,10.352,9.2285,7.2266,16.113,23.926,12.695
9.2773,7.7637,6.8848,3.125,4.7852,1.6113,8.4473,5.4199,4.3457,1.6113,2.3438,0.48828,-0.53711,1.3672,3.4668,1.2695,2.1973,-0.53711,3.7109,5.9082,3.8574,5.3223,15.625,20.02,11.23
3.5645,0.19531,-1.3184,-5.1758,-3.8086,-5.3711,1.0742,-3.3691,-4.6875,-9.9121,-5.8105,-6.5918,-0.92773,-6.5918,-4.6387,-7.0313,-6.543,-6.7871,-2.5879,-0.48828,-1.0254,1.9043,14.16,24.414,12.207
-3.5645,-3.9551,-7.9102,-9.8633,-10.4,-8.5938,-4.6387,-8.0078,-10.84,-14.746,-12.158,-9.8633,-2.5391,-8.8867,-10.498,-10.4,-8.9844,-8.8867,-4.6875,-3.418,-2.6855,1.5137,10.254,14.648,8.7891
-4.4922,-1.6113,-7.5684,-6.9824,-9.375,-4.0039,-4.3945,-3.0273,-8.2031,-8.3008,-10.303,-6.6895,-5.127,-2.5391,-5.9082,-4.5898,-5.4688,-4.5898,1.0742,1.5625,1.7578,7.8125,11.23,19.531,10.254
2.1973,4.5898,0.14648,2.4902,0.68359,4.4434,0.14648,4.6875,2.6367,3.9063,1.6602,4.3457,4.3945,5.3711,5.127,7.4219,5.3223,5.4688,8.8867,10.693,10.742,16.846,13.184,19.531,13.672
6.543,7.2266,6.9824,8.9355,10.059,10.84,0.92773,6.1523,8.9355,12.256,11.23,10.938,10.303,5.1758,9.4727,11.572,14.111,12.354,9.7168,13.428,14.453,18.018,16.113,17.578,17.09
6.5918,8.7891,8.252,12.012,8.8867,9.8633,0.73242,8.3496,10.645,15.479,10.547,10.156,3.7598,5.9082,9.3262,12.988,10.449,7.3242,5.957,7.666,7.8125,9.5215,8.7891,17.09,6.3477
9.8145,10.303,12.451,14.893,12.695,9.2773,4.9316,11.377,15.283,17.48,14.307,9.9609,4.6387,8.1055,12.256,12.988,12.646,8.5938,8.0566,8.4473,9.0332,10.791,9.7656,16.113,11.719
10.791,7.959,12.646,14.551,13.379,9.2285,5.3711,9.2773,14.6,16.553,14.746,10.303,5.3223,4.7852,11.572,10.889,11.23,6.25,4.4434,4.1016,4.2969,4.1992,11.23,16.113,14.648
8.9844,10.938,12.402,16.406,12.646,10.986,4.7363,11.719,12.842,16.895,12.988,11.377,4.834,6.2012,9.9121,9.8633,8.0078,3.9063,2.002,1.3672,0.53711,0.92773,11.23,9.7656,7.3242
14.307,16.895,16.211,21.582,16.699,17.139,8.4473,15.771,15.527,20.947,15.869,16.602,8.4961,11.133,12.549,14.502,14.6,9.8633,9.3262,8.1055,7.666,8.4473,18.066,17.09,17.09
13.33,14.746,14.014,17.334,14.648,16.846,8.0078,12.842,13.184,18.115,15.625,16.553,10.449,11.182,12.549,15.186,14.258,12.256,10.547,10.059,9.5703,11.035,15.625,18.066,15.625
13.623,15.82,14.404,18.311,15.82,17.969,11.279,13.379,13.77,18.359,16.357,17.383,12.842,12.549,14.063,16.748,16.699,14.355,12.939,11.572,11.816,11.279,14.16,18.066,15.625
16.65,19.434,17.383,22.559,20.361,24.17,12.646,16.162,17.773,23.291,21.338,24.512,21.875,15.527,17.09,21.387,23.291,21.729,15.137,15.674,17.969,14.453,16.602,17.578,24.902
13.77,15.039,13.574,18.457,18.408,21.924,6.6895,11.914,14.014,20.996,20.361,23.877,19.238,11.426,14.16,18.945,19.629,18.408,10.156,11.084,13.965,7.6172,11.23,20.996,13.184
12.891,10.059,13.33,13.77,19.58,18.75,7.666,8.5449,13.867,16.406,20.313,19.775,19.678,7.1777,13.77,13.77,19.141,18.604,8.4473,10.059,12.5,6.0059,10.742,12.207,14.648
11.377,9.375,12.354,12.646,16.943,16.846,7.666,8.6914,13.281,14.893,18.408,16.895,11.572,7.1777,13.037,12.598,16.016,13.916,6.7871,8.1543,8.9355,2.832,11.23,17.09,10.742
13.525,13.037,14.307,16.943,19.141,19.922,8.0566,11.865,15.576,18.604,19.971,20.361,10.498,11.377,13.916,16.016,19.531,17.676,10.791,10.986,12.402,7.7637,5.8594,12.207,6.3477
13.867,14.648,15.674,18.213,18.994,19.482,10.889,13.916,16.064,18.945,19.678,19.531,10.107,13.77,15.039,15.82,18.604,16.309,13.184,12.354,12.646,10.303,11.719,7.3242,2.9297
11.67,11.475,13.184,13.77,15.381,12.891,9.6191,10.4,13.086,14.258,15.479,13.623,7.8125,11.377,13.184,11.035,12.891,11.084,11.816,9.375,8.6426,7.959,11.719,6.8359,1.4648
10.742,11.475,13.379,13.184,14.648,9.4238,11.279,9.0332,12.451,13.379,14.063,9.7656,7.5195,9.4727,12.109,8.1543,11.963,9.6191,10.889,8.3008,7.666,6.6406,6.8359,2.4414,7.3242
12.891,12.061,12.939,15.43,13.525,10.352,8.3984,8.252,11.621,13.379,13.232,9.1309,7.1289,9.2285,10.791,8.4473,9.1797,6.7871,9.1797,5.6152,4.7363,3.5645,7.8125,3.9063,4.3945
11.914,8.5449,10.889,11.719,12.061,8.3008,7.2266,4.834,8.7402,8.7402,10.645,6.3477,7.4219,6.8359,7.666,5.0293,5.7617,2.832,5.8105,2.4414,0.97656,-0.73242,7.8125,12.695,7.8125
16.357,10.303,14.893,16.553,18.848,14.502,11.23,9.5215,14.063,15.576,17.578,12.695,13.281,13.086,14.502,11.621,14.404,10.01,13.77,10.01,9.082,7.3242,3.9063,4.3945,11.719
16.406,11.914,14.404,18.75,19.189,16.553,11.377,12.695,15.479,18.359,18.506,15.82,14.063,17.48,17.676,16.113,15.82,12.451,16.748,13.818,13.281,12.598,-3.418,5.8594,2.9297
12.305,5.6152,9.375,9.668,14.014,8.9844,8.252,6.2988,10.059,10.596,11.914,6.5918,9.375,7.7637,11.426,8.3496,10.352,7.0801,9.3262,7.8613,8.3496,5.4199,1.9531,4.8828,4.3945
6.6406,6.1035,5.7129,9.2285,7.0313,3.5645,8.5449,8.1543,7.0801,8.9844,6.9336,3.2227,3.0273,11.279,9.7656,8.9844,8.9355,6.2988,12.256,9.9121,10.01,10.01,9.2773,-3.418,-5.3711
2.2949,1.1719,2.2949,0.29297,0.048828,-6.8359,6.0547,1.5625,3.4668,-0.24414,-1.5137,-8.1543,-4.6875,4.5898,4.3457,0.78125,1.2695,-1.8555,6.0547,3.5156,4.1016,5.5176,18.555,-1.4648,-1.4648
-7.373,-3.0762,-7.2754,-5.7129,-9.7656,-11.475,-1.8555,-2.832,-7.0801,-6.8359,-11.963,-12.256,-9.375,-0.048828,-5.3711,-5.7129,-6.4941,-8.3984,-2.1973,-4.1992,-2.5391,-2.1484,17.578,6.3477,7.3242
-9.0332,-3.5645,-9.8145,-8.6426,-10.889,-11.328,-2.1973,-4.1992,-9.1309,-9.4727,-13.135,-11.279,-8.7402,-2.4414,-7.9102,-8.5449,-9.1797,-10.303,-3.2715,-6.2012,-4.1504,-3.8574,11.23,-3.418,0.48828
-8.9355,-5.8594,-10.01,-9.1309,-7.6172,-8.1055,-2.002,-4.541,-8.8867,-9.1797,-8.9844,-7.4219,-4.2969,-1.709,-6.1035,-8.0078,-4.5898,-4.0039,0.43945,-2.6367,-1.416,-0.3418,13.184,-0.48828,5.3711
2.8809,-0.29297,0.24414,1.416,6.3965,5.5176,7.8125,3.125,2.5391,1.5625,6.25,7.373,10.693,7.8613,5.6641,3.418,7.3242,9.0332,9.2773,6.8359,8.3496,7.1289,6.8359,-2.4414,3.9063
-1.6602,-4.0527,-5.1758,1.1719,4.1504,6.6406,-4.2969,-2.4414,-3.5645,1.5625,3.6621,9.1309,6.0547,1.7578,-1.4648,2.0996,6.2012,8.7891,2.9297,3.125,5.0781,2.002,-0.97656,-10.742,3.9063
4.1504,-1.3184,0.53711,4.834,9.4727,8.3496,-0.92773,-0.78125,1.416,4.1992,9.3262,10.84,9.4727,2.2949,2.9297,3.418,9.6191,12.207,5.6641,5.6152,8.1543,5.2246,7.8125,-0.97656,10.254
6.6406,3.1738,4.5898,8.8867,11.377,10.059,2.1484,5.0293,6.3965,9.9121,11.816,13.818,10.547,7.4707,7.7148,8.0078,12.305,14.16,10.01,8.6914,10.791,7.3242,3.418,-4.3945,6.3477
6.2988,3.9063,5.3711,9.8633,9.9609,7.7148,-0.68359,4.1016,5.127,9.3262,8.2031,9.3262,4.3945,4.4922,5.9082,6.25,10.352,9.668,8.7402,7.5684,9.1797,7.373,4.3945,-3.418,8.3008
8.1543,5.957,7.3242,10.889,8.3984,6.4453,0.68359,4.3945,5.5176,8.5449,7.4219,7.7637,2.8809,6.0547,4.8828,6.2988,7.5195,8.252,7.8125,5.6152,8.252,5.6641,7.8125,0.48828,5.8594
7.1777,7.3242,6.2012,10.254,6.8848,6.1523,3.4668,6.4941,3.6133,6.543,4.1992,6.1523,0.87891,9.1309,4.0527,4.8828,6.4453,7.0313,9.0332,5.2734,6.7871,6.0547,2.9297,-6.3477,2.4414
8.9844,1.2207,5.7129,6.4941,9.082,5.1758,0.73242,1.0254,2.3926,2.2461,5.8105,4.9316,3.7109,3.1738,3.0273,1.1719,5.5664,6.9336,6.543,4.4434,6.2988,5.3223,2.4414,-8.3008,0.97656
10.938,4.9805,7.7148,10.059,10.352,6.4453,3.8086,3.3203,3.3691,3.9063,6.8848,6.8359,5.127,5.127,3.3691,0.87891,3.7109,5.0293,5.6152,1.7578,3.7598,1.3184,6.8359,-9.2773,-6.8359
8.0566,-1.1719,2.9297,3.5645,6.6895,1.416,-0.14648,-3.125,-2.4902,-4.0527,2.0508,1.4648,1.6602,-2.0508,-2.1484,-6.7871,0.19531,1.6602,0.92773,-1.9043,0.3418,-1.2207,0.48828,-9.7656,-4.3945
6.5918,0.19531,0.24414,5.5664,4.9805,4.6875,-5.0293,-2.3438,-3.418,-1.7578,1.416,4.6875,0.39063,0.68359,-3.5156,-3.3691,0.048828,1.9043,1.8555,-1.2695,1.8066,1.0254,0.48828,-8.3008,-7.3242
12.012,1.9531,7.8125,8.0078,11.768,5.7129,-0.73242,-0.68359,2.8809,0.58594,6.8848,3.8574,1.1719,1.3184,2.2461,-2.1484,3.3691,4.3457,5.1758,2.002,3.8086,3.1738,4.8828,-3.9063,-4.8828
14.355,6.0547,10.84,13.965,15.039,10.352,0.43945,3.5156,6.7383,7.8613,11.279,9.668,4.834,7.6172,7.0313,5.8105,9.4238,9.4727,10.84,7.7637,9.5703,9.1309,2.9297,-7.3242,-1.4648
17.334,11.377,13.574,19.287,18.311,16.162,3.3691,9.1309,11.475,15.234,15.771,16.357,8.8867,13.33,12.402,13.232,14.111,13.721,15.527,13.037,14.502,13.379,9.2773,-2.4414,-1.4648
18.213,13.379,15.137,21.045,19.824,17.48,4.3457,11.572,12.891,16.504,15.43,15.576,7.959,14.99,13.867,14.404,16.016,16.016,18.262,16.357,17.969,16.309,6.3477,-7.8125,4.3945
21.973,18.359,19.971,24.316,20.996,17.09,11.182,16.455,18.359,19.287,18.164,17.139,11.475,21.191,19.141,19.434,19.287,19.189,24.316,21.484,22.412,21.826,6.8359,-1.4648,2.9297
21.924,17.822,22.803,21.24,20.361,12.988,14.355,16.455,20.41,17.383,17.822,13.086,13.867,21.533,22.021,18.555,19.824,19.238,25.342,23.389,24.707,23.291,3.418,-0.97656,2.4414
19.043,18.066,20.068,20.801,15.332,10.303,13.281,16.406,16.797,15.137,11.67,10.156,8.7891,19.824,18.018,15.625,16.65,16.162,20.947,19.238,20.41,17.236,9.2773,1.4648,3.9063
23.926,24.756,26.758,27.783,20.361,15.723,17.334,25.195,23.34,23.145,15.527,15.088,12.305,26.27,23.389,22.412,20.215,19.824,25.342,22.363,23.486,18.994,7.3242,3.418,2.4414
26.27,23.34,28.955,25.977,21.973,13.623,18.799,22.461,25,21.68,17.041,13.379,13.623,22.119,23.877,18.311,20.264,20.801,22.803,21.045,21.533,14.795,7.8125,3.9063,8.3008
30.713,25.293,30.615,29.59,24.609,17.285,18.164,23.047,25.488,24.707,20.459,17.773,17.432,23.193,24.072,21.094,21.24,22.119,22.607,20.166,22.021,15.186,10.742,2.9297,9.7656
35.742,30.371,34.033,34.521,27.734,21.191,19.873,25.684,27.344,27.441,22.656,21.094,20.801,24.121,23.73,22.754,23.193,25.049,24.121,20.996,23.535,17.92,16.113,7.3242,16.602
39.893,29.785,37.598,33.936,30.811,21.045,20.654,23.877,28.857,26.709,25.586,21.924,22.607,21.826,24.316,20.361,24.268,26.367,23.535,21.582,24.17,19.678,10.254,11.719,20.02
39.355,28.271,34.131,33.496,29.639,21.24,16.162,20.41,23.73,24.658,23.047,21.631,22.705,17.676,19.336,16.65,19.336,21.484,18.604,17.285,20.264,16.748,13.184,15.625,17.09
40.186,28.564,34.717,32.764,32.91,24.512,17.48,19.043,23.584,23.926,25.537,24.121,27.1,16.846,19.189,16.211,21.973,24.512,20.117,19.971,23.584,20.752,18.555,22.949,12.207
39.941,27.637,32.813,34.033,32.666,27.637,15.234,18.359,21.68,23.145,25,24.902,24.316,15.186,16.602,15.869,20.85,22.412,18.359,17.676,21.826,19.727,7.8125,18.555,12.207
36.67,22.607,28.223,31.152,31.543,28.467,11.865,14.746,18.066,20.068,22.314,23.438,21.924,12.354,12.402,12.5,17.969,20.996,15.381,14.746,19.531,17.578,6.8359,17.578,10.254
30.859,18.213,20.85,27.441,27.93,29.297,7.7148,11.963,12.646,17.139,19.678,25.049,21.582,11.23,8.3496,11.426,16.797,21.387,12.744,12.012,17.676,15.039,5.3711,10.254,8.7891
29.053,13.428,18.311,22.363,24.951,24.268,8.252,7.8125,9.6191,12.744,16.797,19.287,17.432,7.0313,5.7617,4.9805,10.596,14.014,7.959,5.9082,10.791,10.596,6.3477,3.418,8.7891
23.047,8.7402,12.793,16.992,18.652,16.65,2.0996,3.1738,4.834,7.959,9.4727,11.035,8.0078,2.3926,0.73242,-0.14648,4.9805,6.25,3.3691,0.87891,3.7598,3.3203,7.8125,8.3008,9.7656
16.602,2.7832,7.4707,8.8867,12.939,9.375,0.14648,-1.4648,2.3438,3.5645,7.7148,7.8613,7.1289,-0.73242,-0.29297,-2.2949,1.9531,2.7344,0.58594,-2.4414,-0.14648,-1.709,6.8359,-1.9531,5.8594
15.527,4.5898,7.3242,13.135,12.305,11.719,-0.48828,0.63477,2.5879,8.1543,7.1289,9.2285,4.5898,3.1738,-0.43945,0.83008,3.2227,2.7344,2.3926,-0.92773,0.78125,0.43945,9.2773,6.3477,2.9297
12.549,3.418,8.1543,9.082,11.768,8.0566,3.8574,3.6133,6.5918,9.1797,9.668,8.7402,3.8086,8.6426,7.1289,4.9805,6.2988,3.6621,8.7402,4.834,4.3457,4.9316,6.3477,0.97656,2.9297
7.0801,0.43945,6.0547,4.4922,9.4238,4.0039,5.5664,4.6875,9.8633,8.8379,12.402,9.7168,8.252,12.109,13.428,8.0566,9.4727,7.8613,14.307,9.7168,9.6191,11.035,-2.4414,-3.9063,-0.48828
7.666,5.4688,7.7148,9.1309,11.572,9.5703,9.0332,12.207,12.549,14.355,14.014,14.6,9.6191,19.287,17.432,14.111,15.82,14.111,22.07,17.188,15.723,19.629,-1.9531,-0.97656,-2.9297
5.5176,1.5137,6.25,5.7129,10.596,6.6406,8.8379,10.693,14.063,13.33,16.846,16.895,15.234,21.582,22.119,17.48,18.994,17.871,26.465,20.898,19.482,22.705,-5.3711,-12.207,-3.418
-1.2695,1.2207,2.0996,1.709,2.9785,1.5137,10.059,11.914,11.182,11.328,12.061,15.088,15.332,21.436,19.531,17.383,19.141,18.311,25.049,21.143,20.508,23.193,-10.742,-11.23,-7.3242
-2.3926,3.0762,2.9785,0.83008,-1.123,-4.2969,10.986,12.891,11.523,10.693,8.9844,10.742,9.9609,20.947,19.434,16.943,17.725,17.09,25.195,21.143,20.947,22.754,-0.48828,-9.7656,-0.97656
-10.156,1.3184,-1.9531,-4.4434,-8.0566,-10.84,9.9609,12.451,9.6191,8.7402,4.248,8.3496,8.5938,21.338,18.848,17.676,16.406,17.236,24.219,21.191,21.973,22.803,-3.9063,-18.555,-7.3242
-8.7402,4.1504,2.9297,-3.7598,-4.834,-10.547,16.309,16.26,15.283,13.33,10.889,12.842,12.793,24.121,25.244,23.047,25.244,25.928,29.053,29.248,30.127,28.857,-10.254,-17.578,-10.254
-9.4238,7.0313,2.9297,-0.048828,-6.25,-7.8613,13.525,17.871,14.697,15.576,10.352,14.99,10.547,26.025,23.584,25.146,24.219,25.195,28.906,28.711,28.711,27.148,-12.695,-27.832,-15.137
-2.002,6.1035,5.8105,0.73242,0.19531,-1.2695,15.576,16.748,16.406,13.525,14.063,17.627,18.994,23.34,23.828,22.559,24.121,26.66,26.807,24.951,26.221,22.461,-1.4648,-12.695,2.4414
5.6152,9.9609,11.963,6.8359,9.1309,6.7871,18.408,19.775,21.68,20.215,21.68,24.854,25.684,27.734,27.93,25.781,28.955,30.518,30.371,27.197,27.148,24.268,-4.3945,2.9297,7.8125
2.0508,8.6426,7.666,6.7871,5.2734,5.127,12.5,16.943,14.697,16.455,14.697,19.531,15.186,22.266,19.678,17.92,17.676,17.334,21.729,15.771,15.088,12.402,-8.3008,-6.8359,-1.4648
8.0078,15.723,11.768,10.156,8.4961,8.8379,18.896,22.998,17.627,18.506,14.063,18.555,14.697,25.879,21.631,18.506,17.822,16.26,24.561,17.578,15.527,15.576,13.672,16.602,20.996
1.6602,9.0332,6.3965,2.7344,1.0742,0.097656,14.258,15.723,12.354,10.742,7.4219,9.082,6.8359,20.459,16.016,11.475,8.4961,7.0801,18.799,11.279,8.7402,10.986,2.9297,7.8125,4.8828
0.14648,12.158,7.0313,4.4434,-1.0254,-2.4414,15.283,17.188,11.865,10.205,3.5645,4.3457,-0.53711,21.924,14.551,10.938,6.1523,2.832,19.141,10.107,7.5684,11.182,-1.4648,1.9531,0.48828
-4.0527,5.7617,2.7832,-4.248,-6.1035,-8.0078,13.623,11.426,7.0801,2.2461,-1.9531,-1.5625,-1.0742,16.455,10.889,4.4922,1.4648,-0.63477,14.551,5.6641,4.0039,6.4453,-10.254,-6.3477,0
-5.957,4.5898,-0.048828,-3.7109,-6.3965,-7.1289,9.1309,9.2773,4.5898,1.709,-1.6602,2.002,2.2461,13.867,8.1055,3.9551,2.2949,1.8066,11.621,4.9805,4.9805,5.3223,-3.9063,-7.3242,-1.4648
-4.6875,0.43945,-0.43945,-6.2988,-6.1523,-9.082,5.127,2.002,0.63477,-3.3691,-2.3438,-0.68359,4.1992,5.0293,3.5645,-3.0762,-0.87891,0.39063,6.4453,0.24414,0.29297,0.19531,0.97656,0.48828,11.23
-7.6172,1.0254,-4.0527,-7.2266,-11.377,-12.109,3.6133,1.8066,-2.9785,-5.5664,-7.7148,-4.0527,-4.1992,6.9824,0.29297,-3.2227,-5.5176,-4.3945,6.3965,-1.123,-1.5625,-0.19531,-1.4648,-0.97656,3.418
-6.4941,-3.1738,-4.0527,-9.375,-10.84,-14.404,2.5879,-1.3184,-2.9297,-9.668,-8.8379,-9.7656,-6.8848,3.1738,1.0254,-6.8848,-7.1777,-7.0313,5.957,-1.123,-3.3691,1.0742,2.4414,-2.4414,0
-7.373,-2.9297,-7.0313,-7.2266,-13.672,-12.842,-4.3457,-3.5156,-8.6426,-10.107,-14.111,-12.598,-16.016,0.19531,-6.6895,-10.449,-13.379,-16.064,0.19531,-7.9102,-10.645,-4.4434,3.9063,-4.3945,-0.97656
2.2461,0.29297,-1.1719,-2.002,-5.2246,-5.5176,1.1719,-1.9043,-4.3945,-7.8613,-8.7402,-10.596,-9.7656,1.0742,-2.5879,-8.9355,-12.939,-15.967,1.3672,-5.8594,-9.2773,-3.6133,3.9063,0,-1.4648
-6.7871,-8.9355,-10.596,-11.035,-11.572,-10.596,-4.3945,-8.1543,-12.5,-15.381,-15.967,-15.479,-15.82,-5.3223,-9.7168,-14.893,-16.016,-20.02,-4.1016,-10.156,-12.646,-7.4707,-1.9531,-0.97656,-3.9063
-6.5918,-15.234,-12.695,-13.184,-11.475,-12.158,-7.8613,-14.746,-15.43,-17.676,-14.355,-16.602,-12.744,-9.8145,-11.475,-17.92,-16.943,-18.506,-5.2246,-11.377,-12.061,-5.8594,0.48828,3.9063,-6.8359
